%OpenBCI Raw EEG Data
%
%Sample Rate = 250.0 Hz
%First Column = SampleIndex
%Other Columns = EEG data in microvolts followed by Accel Data (in G) interleaved with Aux Data
235, 0.00, 16831.67, 0.00, -2851.77, 0.00, 0.00, -7408.35, 0.00, -0.01, -0.00, 1.01
236, 0.00, 16839.67, 0.00, -2883.29, 0.00, 0.00, -7092.66, 0.00, 0.00, 0.00, 0.00
237, 0.00, 16879.43, 0.00, -2901.30, 0.00, 0.00, -7019.34, 0.00, -0.01, -0.01, 1.01
238, 0.00, 16879.34, 0.00, -2882.64, 0.00, 0.00, -7352.11, 0.00, 0.00, 0.00, 0.00
239, 0.00, 16836.59, 0.00, -2876.92, 0.00, 0.00, -7461.19, 0.00, 0.00, 0.00, 0.00
240, 0.00, 16833.50, 0.00, -2913.13, 0.00, 0.00, -7138.68, 0.00, 0.00, 0.00, 0.00
241, 0.00, 16871.74, 0.00, -2933.42, 0.00, 0.00, -7009.26, 0.00, 0.00, 0.00, 0.00
242, 0.00, 16879.25, 0.00, -2918.38, 0.00, 0.00, -7290.16, 0.00, -0.00, -0.00, 1.01
243, 0.00, 16841.57, 0.00, -2911.52, 0.00, 0.00, -7444.78, 0.00, 0.00, 0.00, 0.00
244, 0.00, 16821.21, 0.00, -2931.68, 0.00, 0.00, -7201.53, 0.00, 0.00, 0.00, 0.00
245, 0.00, 16855.27, 0.00, -2961.29, 0.00, 0.00, -6987.54, 0.00, 0.00, 0.00, 0.00
246, 0.00, 16873.80, 0.00, -2947.44, 0.00, 0.00, -7210.43, 0.00, 0.00, 0.00, 0.00
247, 0.00, 16841.50, 0.00, -2924.59, 0.00, 0.00, -7467.67, 0.00, -0.00, -0.00, 1.01
248, 0.00, 16817.97, 0.00, -2941.76, 0.00, 0.00, -7308.69, 0.00, 0.00, 0.00, 0.00
249, 0.00, 16853.68, 0.00, -2970.86, 0.00, 0.00, -6989.64, 0.00, 0.00, 0.00, 0.00
250, 0.00, 16885.29, 0.00, -2963.24, 0.00, 0.00, -7130.90, 0.00, 0.00, 0.00, 0.00
251, 0.00, 16852.05, 0.00, -2937.69, 0.00, 0.00, -7443.02, 0.00, 0.00, 0.00, 0.00
252, 0.00, 16819.89, 0.00, -2942.99, 0.00, 0.00, -7322.12, 0.00, -0.00, -0.00, 1.01
253, 0.00, 16846.58, 0.00, -2968.80, 0.00, 0.00, -6997.41, 0.00, 0.00, 0.00, 0.00
254, 0.00, 16888.17, 0.00, -2969.99, 0.00, 0.00, -7096.92, 0.00, 0.00, 0.00, 0.00
255, 0.00, 16871.34, 0.00, -2942.50, 0.00, 0.00, -7441.19, 0.00, 0.00, 0.00, 0.00
0, 0.00, 16831.40, 0.00, -2944.35, 0.00, 0.00, -7359.40, 0.00, 0.00, 0.00, 0.00
1, 0.00, 16849.44, 0.00, -2975.13, 0.00, 0.00, -6940.82, 0.00, 0.00, 0.00, 0.00
2, 0.00, 16864.19, 0.00, -2965.99, 0.00, 0.00, -7067.38, 0.00, 0.00, -0.00, 1.01
3, 0.00, 16837.86, 0.00, -2927.56, 0.00, 0.00, -7594.05, 0.00, 0.00, 0.00, 0.00
4, 0.00, 16830.10, 0.00, -2936.66, 0.00, 0.00, -7464.32, 0.00, 0.00, 0.00, 0.00
5, 0.00, 16866.83, 0.00, -2979.29, 0.00, 0.00, -6909.68, 0.00, 0.00, 0.00, 0.00
6, 0.00, 16876.97, 0.00, -2978.93, 0.00, 0.00, -6963.60, 0.00, 0.00, 0.00, 0.00
7, 0.00, 16848.10, 0.00, -2938.11, 0.00, 0.00, -7520.60, 0.00, -0.00, 0.00, 1.01
8, 0.00, 16840.90, 0.00, -2931.19, 0.00, 0.00, -7540.14, 0.00, 0.00, 0.00, 0.00
9, 0.00, 16867.61, 0.00, -2973.68, 0.00, 0.00, -6952.64, 0.00, 0.00, 0.00, 0.00
10, 0.00, 16883.37, 0.00, -2982.55, 0.00, 0.00, -6863.89, 0.00, 0.00, 0.00, 0.00
11, 0.00, 16852.43, 0.00, -2939.90, 0.00, 0.00, -7441.81, 0.00, 0.00, 0.00, 0.00
12, 0.00, 16836.47, 0.00, -2927.43, 0.00, 0.00, -7603.19, 0.00, -0.01, 0.00, 1.01
13, 0.00, 16867.21, 0.00, -2969.41, 0.00, 0.00, -7065.81, 0.00, 0.00, 0.00, 0.00
14, 0.00, 16882.96, 0.00, -2984.14, 0.00, 0.00, -6835.90, 0.00, 0.00, 0.00, 0.00
15, 0.00, 16864.57, 0.00, -2947.88, 0.00, 0.00, -7344.72, 0.00, 0.00, 0.00, 0.00
16, 0.00, 16836.21, 0.00, -2923.83, 0.00, 0.00, -7651.38, 0.00, 0.00, 0.00, 0.00
17, 0.00, 16853.30, 0.00, -2961.16, 0.00, 0.00, -7179.65, 0.00, -0.00, 0.00, 1.01
18, 0.00, 16877.58, 0.00, -2987.53, 0.00, 0.00, -6817.75, 0.00, 0.00, 0.00, 0.00
19, 0.00, 16865.60, 0.00, -2960.11, 0.00, 0.00, -7208.42, 0.00, 0.00, 0.00, 0.00
20, 0.00, 16833.10, 0.00, -2929.53, 0.00, 0.00, -7645.55, 0.00, 0.00, 0.00, 0.00
21, 0.00, 16847.58, 0.00, -2952.35, 0.00, 0.00, -7305.42, 0.00, 0.00, 0.00, 0.00
22, 0.00, 16883.86, 0.00, -2984.18, 0.00, 0.00, -6820.17, 0.00, -0.00, -0.00, 1.02
23, 0.00, 16873.98, 0.00, -2966.17, 0.00, 0.00, -7115.21, 0.00, 0.00, 0.00, 0.00
24, 0.00, 16837.17, 0.00, -2926.98, 0.00, 0.00, -7611.35, 0.00, 0.00, 0.00, 0.00
25, 0.00, 16846.13, 0.00, -2943.99, 0.00, 0.00, -7371.85, 0.00, 0.00, 0.00, 0.00
26, 0.00, 16878.38, 0.00, -2984.65, 0.00, 0.00, -6830.18, 0.00, 0.00, 0.00, 0.00
27, 0.00, 16874.31, 0.00, -2973.54, 0.00, 0.00, -6997.64, 0.00, -0.00, 0.00, 1.01
28, 0.00, 16836.03, 0.00, -2933.76, 0.00, 0.00, -7582.25, 0.00, 0.00, 0.00, 0.00
29, 0.00, 16831.00, 0.00, -2940.28, 0.00, 0.00, -7480.41, 0.00, 0.00, 0.00, 0.00
30, 0.00, 16872.39, 0.00, -2984.72, 0.00, 0.00, -6896.65, 0.00, 0.00, 0.00, 0.00
31, 0.00, 16882.18, 0.00, -2987.18, 0.00, 0.00, -6915.90, 0.00, 0.00, 0.00, 0.00
32, 0.00, 16843.18, 0.00, -2943.70, 0.00, 0.00, -7499.55, 0.00, -0.00, -0.01, 1.02
33, 0.00, 16825.95, 0.00, -2936.86, 0.00, 0.00, -7564.66, 0.00, 0.00, 0.00, 0.00
34, 0.00, 16863.79, 0.00, -2977.48, 0.00, 0.00, -6985.75, 0.00, 0.00, 0.00, 0.00
35, 0.00, 16879.66, 0.00, -2990.69, 0.00, 0.00, -6852.96, 0.00, 0.00, 0.00, 0.00
36, 0.00, 16845.26, 0.00, -2949.78, 0.00, 0.00, -7414.43, 0.00, 0.00, 0.00, 0.00
37, 0.00, 16829.81, 0.00, -2937.69, 0.00, 0.00, -7626.46, 0.00, 0.00, 0.00, 0.00
38, 0.00, 16859.05, 0.00, -2975.51, 0.00, 0.00, -7112.46, 0.00, -0.00, -0.00, 1.02
39, 0.00, 16881.18, 0.00, -2995.02, 0.00, 0.00, -6801.41, 0.00, 0.00, 0.00, 0.00
40, 0.00, 16853.64, 0.00, -2960.76, 0.00, 0.00, -7305.58, 0.00, 0.00, 0.00, 0.00
41, 0.00, 16820.04, 0.00, -2931.63, 0.00, 0.00, -7672.06, 0.00, 0.00, 0.00, 0.00
42, 0.00, 16844.83, 0.00, -2964.87, 0.00, 0.00, -7181.32, 0.00, 0.00, 0.00, 0.00
43, 0.00, 16874.67, 0.00, -2996.77, 0.00, 0.00, -6765.56, 0.00, -0.00, 0.00, 1.01
44, 0.00, 16852.66, 0.00, -2968.00, 0.00, 0.00, -7199.30, 0.00, 0.00, 0.00, 0.00
45, 0.00, 16818.17, 0.00, -2935.36, 0.00, 0.00, -7655.49, 0.00, 0.00, 0.00, 0.00
46, 0.00, 16831.71, 0.00, -2958.63, 0.00, 0.00, -7303.12, 0.00, 0.00, 0.00, 0.00
47, 0.00, 16869.73, 0.00, -2995.74, 0.00, 0.00, -6789.21, 0.00, 0.00, 0.00, 0.00
48, 0.00, 16862.65, 0.00, -2976.51, 0.00, 0.00, -7085.79, 0.00, -0.00, -0.00, 1.01
49, 0.00, 16826.15, 0.00, -2939.03, 0.00, 0.00, -7638.19, 0.00, 0.00, 0.00, 0.00
50, 0.00, 16832.72, 0.00, -2953.51, 0.00, 0.00, -7422.52, 0.00, 0.00, 0.00, 0.00
51, 0.00, 16871.45, 0.00, -2993.43, 0.00, 0.00, -6859.77, 0.00, 0.00, 0.00, 0.00
52, 0.00, 16868.08, 0.00, -2984.99, 0.00, 0.00, -6989.66, 0.00, 0.00, 0.00, 0.00
53, 0.00, 16831.82, 0.00, -2945.92, 0.00, 0.00, -7544.07, 0.00, -0.00, -0.00, 1.01
54, 0.00, 16827.26, 0.00, -2944.22, 0.00, 0.00, -7488.44, 0.00, 0.00, 0.00, 0.00
55, 0.00, 16858.76, 0.00, -2988.36, 0.00, 0.00, -6901.53, 0.00, 0.00, 0.00, 0.00
56, 0.00, 16866.83, 0.00, -2994.04, 0.00, 0.00, -6893.10, 0.00, 0.00, 0.00, 0.00
57, 0.00, 16833.81, 0.00, -2948.57, 0.00, 0.00, -7494.74, 0.00, 0.00, 0.00, 0.00
58, 0.00, 16818.48, 0.00, -2940.46, 0.00, 0.00, -7590.81, 0.00, -0.01, -0.01, 1.01
59, 0.00, 16850.42, 0.00, -2983.98, 0.00, 0.00, -7017.04, 0.00, 0.00, 0.00, 0.00
60, 0.00, 16869.55, 0.00, -2996.81, 0.00, 0.00, -6834.43, 0.00, 0.00, 0.00, 0.00
61, 0.00, 16840.38, 0.00, -2955.62, 0.00, 0.00, -7405.00, 0.00, 0.00, 0.00, 0.00
62, 0.00, 16815.24, 0.00, -2937.89, 0.00, 0.00, -7660.55, 0.00, 0.00, 0.00, 0.00
63, 0.00, 16847.98, 0.00, -2978.35, 0.00, 0.00, -7141.47, 0.00, -0.01, -0.01, 1.02
64, 0.00, 16876.79, 0.00, -3002.78, 0.00, 0.00, -6795.98, 0.00, 0.00, 0.00, 0.00
65, 0.00, 16855.34, 0.00, -2967.80, 0.00, 0.00, -7277.79, 0.00, 0.00, 0.00, 0.00
66, 0.00, 16831.40, 0.00, -2936.37, 0.00, 0.00, -7644.45, 0.00, 0.00, 0.00, 0.00
67, 0.00, 16851.47, 0.00, -2966.23, 0.00, 0.00, -7216.35, 0.00, 0.00, 0.00, 0.00
68, 0.00, 16881.31, 0.00, -3003.67, 0.00, 0.00, -6790.37, 0.00, 0.00, 0.00, 0.00
69, 0.00, 16860.12, 0.00, -2977.63, 0.00, 0.00, -7193.19, 0.00, -0.01, -0.00, 1.01
70, 0.00, 16826.53, 0.00, -2937.89, 0.00, 0.00, -7654.11, 0.00, 0.00, 0.00, 0.00
71, 0.00, 16837.23, 0.00, -2959.39, 0.00, 0.00, -7324.00, 0.00, 0.00, 0.00, 0.00
72, 0.00, 16867.21, 0.00, -2999.18, 0.00, 0.00, -6815.81, 0.00, 0.00, 0.00, 0.00
73, 0.00, 16864.64, 0.00, -2983.31, 0.00, 0.00, -7047.80, 0.00, 0.00, 0.00, 0.00
74, 0.00, 16832.58, 0.00, -2940.39, 0.00, 0.00, -7605.45, 0.00, -0.01, -0.01, 1.01
75, 0.00, 16833.41, 0.00, -2948.55, 0.00, 0.00, -7461.03, 0.00, 0.00, 0.00, 0.00
76, 0.00, 16864.86, 0.00, -2993.30, 0.00, 0.00, -6862.05, 0.00, 0.00, 0.00, 0.00
77, 0.00, 16872.62, 0.00, -2993.28, 0.00, 0.00, -6937.56, 0.00, 0.00, 0.00, 0.00
78, 0.00, 16844.92, 0.00, -2946.99, 0.00, 0.00, -7543.89, 0.00, 0.00, 0.00, 0.00
79, 0.00, 16837.97, 0.00, -2945.29, 0.00, 0.00, -7534.71, 0.00, -0.00, -0.01, 1.01
80, 0.00, 16870.00, 0.00, -2989.26, 0.00, 0.00, -6929.69, 0.00, 0.00, 0.00, 0.00
81, 0.00, 16874.65, 0.00, -2996.99, 0.00, 0.00, -6882.35, 0.00, 0.00, 0.00, 0.00
82, 0.00, 16836.59, 0.00, -2954.21, 0.00, 0.00, -7482.60, 0.00, 0.00, 0.00, 0.00
83, 0.00, 16824.56, 0.00, -2944.71, 0.00, 0.00, -7621.16, 0.00, 0.00, 0.00, 0.00
84, 0.00, 16851.94, 0.00, -2982.75, 0.00, 0.00, -7026.67, 0.00, -0.00, -0.00, 1.01
85, 0.00, 16872.21, 0.00, -3002.22, 0.00, 0.00, -6810.62, 0.00, 0.00, 0.00, 0.00
86, 0.00, 16842.20, 0.00, -2964.94, 0.00, 0.00, -7366.96, 0.00, 0.00, 0.00, 0.00
87, 0.00, 16821.50, 0.00, -2940.80, 0.00, 0.00, -7669.98, 0.00, 0.00, 0.00, 0.00
88, 0.00, 16850.62, 0.00, -2978.30, 0.00, 0.00, -7163.67, 0.00, 0.00, 0.00, 0.00
89, 0.00, 16878.79, 0.00, -3007.96, 0.00, 0.00, -6788.38, 0.00, -0.01, -0.00, 1.01
90, 0.00, 16858.78, 0.00, -2971.13, 0.00, 0.00, -7264.96, 0.00, 0.00, 0.00, 0.00
91, 0.00, 16821.68, 0.00, -2939.86, 0.00, 0.00, -7697.74, 0.00, 0.00, 0.00, 0.00
92, 0.00, 16842.71, 0.00, -2968.67, 0.00, 0.00, -7263.51, 0.00, 0.00, 0.00, 0.00
93, 0.00, 16884.28, 0.00, -3004.86, 0.00, 0.00, -6798.73, 0.00, 0.00, 0.00, 0.00
94, 0.00, 16873.38, 0.00, -2981.32, 0.00, 0.00, -7131.03, 0.00, -0.01, -0.01, 1.02
95, 0.00, 16832.61, 0.00, -2943.99, 0.00, 0.00, -7649.68, 0.00, 0.00, 0.00, 0.00
96, 0.00, 16838.28, 0.00, -2958.34, 0.00, 0.00, -7384.81, 0.00, 0.00, 0.00, 0.00
97, 0.00, 16875.92, 0.00, -2999.63, 0.00, 0.00, -6828.06, 0.00, 0.00, 0.00, 0.00
98, 0.00, 16879.66, 0.00, -2985.70, 0.00, 0.00, -7024.35, 0.00, 0.00, 0.00, 0.00
99, 0.00, 16838.75, 0.00, -2942.96, 0.00, 0.00, -7607.62, 0.00, -0.01, -0.01, 1.00
100, 0.00, 16836.65, 0.00, -2949.67, 0.00, 0.00, -7481.98, 0.00, 0.00, 0.00, 0.00
101, 0.00, 16870.98, 0.00, -2995.00, 0.00, 0.00, -6889.79, 0.00, 0.00, 0.00, 0.00
102, 0.00, 16872.17, 0.00, -2995.49, 0.00, 0.00, -6943.79, 0.00, 0.00, 0.00, 0.00
103, 0.00, 16835.62, 0.00, -2947.26, 0.00, 0.00, -7581.47, 0.00, 0.00, 0.00, 0.00
104, 0.00, 16823.53, 0.00, -2938.38, 0.00, 0.00, -7597.49, 0.00, 0.00, 0.00, 0.00
105, 0.00, 16861.11, 0.00, -2982.77, 0.00, 0.00, -6981.12, 0.00, -0.01, -0.00, 1.01
106, 0.00, 16872.39, 0.00, -2993.21, 0.00, 0.00, -6856.00, 0.00, 0.00, 0.00, 0.00
107, 0.00, 16837.57, 0.00, -2948.87, 0.00, 0.00, -7444.74, 0.00, 0.00, 0.00, 0.00
108, 0.00, 16820.38, 0.00, -2935.59, 0.00, 0.00, -7632.23, 0.00, 0.00, 0.00, 0.00
109, 0.00, 16856.79, 0.00, -2972.54, 0.00, 0.00, -7076.03, 0.00, 0.00, 0.00, 0.00
110, 0.00, 16875.95, 0.00, -2991.65, 0.00, 0.00, -6812.90, 0.00, -0.00, -0.01, 1.01
111, 0.00, 16851.36, 0.00, -2952.75, 0.00, 0.00, -7350.35, 0.00, 0.00, 0.00, 0.00
112, 0.00, 16829.92, 0.00, -2926.27, 0.00, 0.00, -7685.80, 0.00, 0.00, 0.00, 0.00
113, 0.00, 16853.21, 0.00, -2964.89, 0.00, 0.00, -7207.86, 0.00, 0.00, 0.00, 0.00
114, 0.00, 16882.70, 0.00, -3005.46, 0.00, 0.00, -6769.25, 0.00, 0.00, 0.00, 0.00
115, 0.00, 16866.63, 0.00, -2977.41, 0.00, 0.00, -7210.27, 0.00, -0.01, -0.00, 1.02
116, 0.00, 16833.59, 0.00, -2946.07, 0.00, 0.00, -7673.15, 0.00, 0.00, 0.00, 0.00
117, 0.00, 16849.10, 0.00, -2971.15, 0.00, 0.00, -7320.80, 0.00, 0.00, 0.00, 0.00
118, 0.00, 16878.29, 0.00, -3015.79, 0.00, 0.00, -6815.29, 0.00, 0.00, 0.00, 0.00
119, 0.00, 16867.32, 0.00, -2996.25, 0.00, 0.00, -7092.12, 0.00, 0.00, 0.00, 0.00
120, 0.00, 16826.68, 0.00, -2953.25, 0.00, 0.00, -7645.88, 0.00, -0.00, -0.00, 1.02
121, 0.00, 16833.68, 0.00, -2967.02, 0.00, 0.00, -7437.50, 0.00, 0.00, 0.00, 0.00
122, 0.00, 16875.97, 0.00, -3007.74, 0.00, 0.00, -6839.90, 0.00, 0.00, 0.00, 0.00
123, 0.00, 16875.88, 0.00, -2999.81, 0.00, 0.00, -6981.88, 0.00, 0.00, 0.00, 0.00
124, 0.00, 16839.00, 0.00, -2957.47, 0.00, 0.00, -7579.10, 0.00, 0.00, 0.00, 0.00
125, 0.00, 16835.80, 0.00, -2961.96, 0.00, 0.00, -7513.63, 0.00, -0.00, -0.00, 1.01
126, 0.00, 16877.76, 0.00, -3004.45, 0.00, 0.00, -6918.69, 0.00, 0.00, 0.00, 0.00
127, 0.00, 16887.50, 0.00, -3003.92, 0.00, 0.00, -6894.60, 0.00, 0.00, 0.00, 0.00
128, 0.00, 16857.91, 0.00, -2956.58, 0.00, 0.00, -7498.72, 0.00, 0.00, 0.00, 0.00
129, 0.00, 16859.03, 0.00, -2944.40, 0.00, 0.00, -7579.79, 0.00, 0.00, 0.00, 0.00
130, 0.00, 16895.21, 0.00, -2970.81, 0.00, 0.00, -6979.18, 0.00, -0.01, -0.00, 1.01
131, 0.00, 16914.10, 0.00, -2956.04, 0.00, 0.00, -6824.55, 0.00, 0.00, 0.00, 0.00
132, 0.00, 16878.83, 0.00, -2897.46, 0.00, 0.00, -7409.22, 0.00, 0.00, 0.00, 0.00
133, 0.00, 16862.78, 0.00, -2863.53, 0.00, 0.00, -7652.83, 0.00, 0.00, 0.00, 0.00
134, 0.00, 16895.26, 0.00, -2888.43, 0.00, 0.00, -7114.49, 0.00, 0.00, 0.00, 0.00
135, 0.00, 16920.90, 0.00, -2932.68, 0.00, 0.00, -6817.21, 0.00, 0.00, -0.00, 1.01
136, 0.00, 16894.70, 0.00, -2912.37, 0.00, 0.00, -7322.30, 0.00, 0.00, 0.00, 0.00
137, 0.00, 16860.43, 0.00, -2890.17, 0.00, 0.00, -7676.48, 0.00, 0.00, 0.00, 0.00
138, 0.00, 16883.86, 0.00, -2942.94, 0.00, 0.00, -7236.42, 0.00, 0.00, 0.00, 0.00
139, 0.00, 16915.49, 0.00, -3004.50, 0.00, 0.00, -6780.71, 0.00, 0.00, 0.00, 0.00
140, 0.00, 16893.02, 0.00, -3003.07, 0.00, 0.00, -7171.53, 0.00, 0.00, 0.00, 0.00
141, 0.00, 16860.97, 0.00, -2959.37, 0.00, 0.00, -7667.07, 0.00, -0.01, -0.00, 1.01
142, 0.00, 16874.83, 0.00, -2964.98, 0.00, 0.00, -7334.95, 0.00, 0.00, 0.00, 0.00
143, 0.00, 16917.52, 0.00, -3001.03, 0.00, 0.00, -6778.30, 0.00, 0.00, 0.00, 0.00
144, 0.00, 16906.75, 0.00, -2981.59, 0.00, 0.00, -7053.14, 0.00, 0.00, 0.00, 0.00
145, 0.00, 16867.01, 0.00, -2935.57, 0.00, 0.00, -7653.44, 0.00, 0.00, 0.00, 0.00
146, 0.00, 16871.23, 0.00, -2943.99, 0.00, 0.00, -7447.67, 0.00, -0.00, -0.00, 1.01
147, 0.00, 16911.20, 0.00, -2988.47, 0.00, 0.00, -6824.21, 0.00, 0.00, 0.00, 0.00
148, 0.00, 16908.22, 0.00, -2986.24, 0.00, 0.00, -6960.96, 0.00, 0.00, 0.00, 0.00
149, 0.00, 16868.95, 0.00, -2940.64, 0.00, 0.00, -7586.14, 0.00, 0.00, 0.00, 0.00
150, 0.00, 16864.23, 0.00, -2941.09, 0.00, 0.00, -7516.69, 0.00, 0.00, 0.00, 0.00
151, 0.00, 16897.05, 0.00, -2988.58, 0.00, 0.00, -6908.01, 0.00, -0.01, -0.01, 1.01
152, 0.00, 16908.54, 0.00, -2994.87, 0.00, 0.00, -6862.01, 0.00, 0.00, 0.00, 0.00
153, 0.00, 16870.60, 0.00, -2949.18, 0.00, 0.00, -7487.72, 0.00, 0.00, 0.00, 0.00
154, 0.00, 16859.09, 0.00, -2933.87, 0.00, 0.00, -7628.00, 0.00, 0.00, 0.00, 0.00
155, 0.00, 16899.66, 0.00, -2974.73, 0.00, 0.00, -7024.30, 0.00, 0.00, 0.00, 0.00
156, 0.00, 16916.13, 0.00, -2995.89, 0.00, 0.00, -6794.19, 0.00, -0.00, -0.00, 1.01
157, 0.00, 16878.72, 0.00, -2954.59, 0.00, 0.00, -7377.01, 0.00, 0.00, 0.00, 0.00
158, 0.00, 16853.62, 0.00, -2929.96, 0.00, 0.00, -7682.85, 0.00, 0.00, 0.00, 0.00
159, 0.00, 16881.94, 0.00, -2966.55, 0.00, 0.00, -7155.08, 0.00, 0.00, 0.00, 0.00
160, 0.00, 16907.78, 0.00, -2995.60, 0.00, 0.00, -6786.48, 0.00, 0.00, 0.00, 0.00
161, 0.00, 16880.84, 0.00, -2958.30, 0.00, 0.00, -7271.98, 0.00, -0.00, -0.00, 1.00
162, 0.00, 16856.25, 0.00, -2922.92, 0.00, 0.00, -7701.38, 0.00, 0.00, 0.00, 0.00
163, 0.00, 16878.72, 0.00, -2949.07, 0.00, 0.00, -7284.50, 0.00, 0.00, 0.00, 0.00
164, 0.00, 16902.41, 0.00, -2989.19, 0.00, 0.00, -6793.79, 0.00, 0.00, 0.00, 0.00
165, 0.00, 16891.12, 0.00, -2966.21, 0.00, 0.00, -7132.15, 0.00, 0.00, 0.00, 0.00
166, 0.00, 16858.94, 0.00, -2920.77, 0.00, 0.00, -7651.74, 0.00, -0.00, -0.00, 1.02
167, 0.00, 16873.69, 0.00, -2939.34, 0.00, 0.00, -7367.11, 0.00, 0.00, 0.00, 0.00
168, 0.00, 16909.12, 0.00, -2985.88, 0.00, 0.00, -6813.75, 0.00, 0.00, 0.00, 0.00
169, 0.00, 16901.74, 0.00, -2967.86, 0.00, 0.00, -7049.43, 0.00, 0.00, 0.00, 0.00
170, 0.00, 16862.69, 0.00, -2919.05, 0.00, 0.00, -7612.20, 0.00, 0.00, 0.00, 0.00
171, 0.00, 16862.74, 0.00, -2927.45, 0.00, 0.00, -7466.22, 0.00, 0.00, 0.00, 0.00
172, 0.00, 16898.41, 0.00, -2971.35, 0.00, 0.00, -6860.85, 0.00, 0.00, -0.01, 1.02
173, 0.00, 16897.14, 0.00, -2967.91, 0.00, 0.00, -6917.78, 0.00, 0.00, 0.00, 0.00
174, 0.00, 16857.75, 0.00, -2921.95, 0.00, 0.00, -7540.36, 0.00, 0.00, 0.00, 0.00
175, 0.00, 16851.63, 0.00, -2915.94, 0.00, 0.00, -7565.26, 0.00, 0.00, 0.00, 0.00
176, 0.00, 16892.42, 0.00, -2953.25, 0.00, 0.00, -6956.04, 0.00, 0.00, 0.00, 0.00
177, 0.00, 16909.36, 0.00, -2958.05, 0.00, 0.00, -6841.53, 0.00, -0.00, -0.01, 1.02
178, 0.00, 16871.50, 0.00, -2911.74, 0.00, 0.00, -7458.69, 0.00, 0.00, 0.00, 0.00
179, 0.00, 16855.88, 0.00, -2894.46, 0.00, 0.00, -7634.89, 0.00, 0.00, 0.00, 0.00
180, 0.00, 16896.73, 0.00, -2931.39, 0.00, 0.00, -7062.66, 0.00, 0.00, 0.00, 0.00
181, 0.00, 16915.51, 0.00, -2947.50, 0.00, 0.00, -6811.07, 0.00, 0.00, 0.00, 0.00
182, 0.00, 16881.82, 0.00, -2905.30, 0.00, 0.00, -7356.36, 0.00, 0.00, -0.01, 1.02
183, 0.00, 16858.09, 0.00, -2868.22, 0.00, 0.00, -7674.00, 0.00, 0.00, 0.00, 0.00
184, 0.00, 16889.54, 0.00, -2897.12, 0.00, 0.00, -7161.32, 0.00, 0.00, 0.00, 0.00
185, 0.00, 16926.48, 0.00, -2931.21, 0.00, 0.00, -6777.56, 0.00, 0.00, 0.00, 0.00
186, 0.00, 16904.94, 0.00, -2893.37, 0.00, 0.00, -7225.89, 0.00, 0.00, 0.00, 0.00
187, 0.00, 16874.61, 0.00, -2852.89, 0.00, 0.00, -7653.08, 0.00, -0.01, -0.01, 1.01
188, 0.00, 16900.49, 0.00, -2873.81, 0.00, 0.00, -7259.89, 0.00, 0.00, 0.00, 0.00
189, 0.00, 16926.62, 0.00, -2908.43, 0.00, 0.00, -6756.24, 0.00, 0.00, 0.00, 0.00
190, 0.00, 16903.91, 0.00, -2884.47, 0.00, 0.00, -7096.16, 0.00, 0.00, 0.00, 0.00
191, 0.00, 16868.64, 0.00, -2840.26, 0.00, 0.00, -7642.49, 0.00, 0.00, 0.00, 0.00
192, 0.00, 16874.02, 0.00, -2852.17, 0.00, 0.00, -7406.83, 0.00, 0.00, -0.00, 1.00
193, 0.00, 16909.81, 0.00, -2899.11, 0.00, 0.00, -6840.48, 0.00, 0.00, 0.00, 0.00
194, 0.00, 16905.79, 0.00, -2891.42, 0.00, 0.00, -7009.75, 0.00, 0.00, 0.00, 0.00
195, 0.00, 16868.59, 0.00, -2847.14, 0.00, 0.00, -7594.81, 0.00, 0.00, 0.00, 0.00
196, 0.00, 16876.59, 0.00, -2854.76, 0.00, 0.00, -7503.57, 0.00, 0.00, 0.00, 0.00
197, 0.00, 16918.39, 0.00, -2906.26, 0.00, 0.00, -6883.31, 0.00, -0.00, -0.00, 1.01
198, 0.00, 16922.68, 0.00, -2913.75, 0.00, 0.00, -6890.33, 0.00, 0.00, 0.00, 0.00
199, 0.00, 16882.07, 0.00, -2877.30, 0.00, 0.00, -7509.78, 0.00, 0.00, 0.00, 0.00
200, 0.00, 16873.24, 0.00, -2875.91, 0.00, 0.00, -7588.93, 0.00, 0.00, 0.00, 0.00
201, 0.00, 16906.12, 0.00, -2927.39, 0.00, 0.00, -6994.91, 0.00, 0.00, 0.00, 0.00
202, 0.00, 16922.84, 0.00, -2951.59, 0.00, 0.00, -6836.30, 0.00, -0.01, 0.00, 1.00
203, 0.00, 16889.22, 0.00, -2920.28, 0.00, 0.00, -7424.85, 0.00, 0.00, 0.00, 0.00
204, 0.00, 16861.73, 0.00, -2908.01, 0.00, 0.00, -7659.81, 0.00, 0.00, 0.00, 0.00
205, 0.00, 16894.21, 0.00, -2957.67, 0.00, 0.00, -7127.23, 0.00, 0.00, 0.00, 0.00
206, 0.00, 16918.48, 0.00, -2985.01, 0.00, 0.00, -6815.54, 0.00, 0.00, 0.00, 0.00
207, 0.00, 16888.06, 0.00, -2950.74, 0.00, 0.00, -7301.51, 0.00, 0.00, 0.00, 0.00
208, 0.00, 16874.85, 0.00, -2926.54, 0.00, 0.00, -7647.02, 0.00, -0.01, -0.00, 1.01
209, 0.00, 16891.41, 0.00, -2964.51, 0.00, 0.00, -7202.89, 0.00, 0.00, 0.00, 0.00
210, 0.00, 16902.01, 0.00, -3003.05, 0.00, 0.00, -6765.36, 0.00, 0.00, 0.00, 0.00
211, 0.00, 16880.44, 0.00, -2976.07, 0.00, 0.00, -7180.52, 0.00, 0.00, 0.00, 0.00
212, 0.00, 16854.13, 0.00, -2937.62, 0.00, 0.00, -7679.10, 0.00, 0.00, 0.00, 0.00
213, 0.00, 16874.11, 0.00, -2962.32, 0.00, 0.00, -7350.57, 0.00, -0.01, -0.00, 1.01
214, 0.00, 16913.14, 0.00, -3004.59, 0.00, 0.00, -6818.78, 0.00, 0.00, 0.00, 0.00
215, 0.00, 16898.95, 0.00, -2986.89, 0.00, 0.00, -7063.20, 0.00, 0.00, 0.00, 0.00
216, 0.00, 16858.85, 0.00, -2944.22, 0.00, 0.00, -7644.12, 0.00, 0.00, 0.00, 0.00
217, 0.00, 16862.80, 0.00, -2955.77, 0.00, 0.00, -7450.82, 0.00, 0.00, 0.00, 0.00
218, 0.00, 16901.18, 0.00, -3000.12, 0.00, 0.00, -6822.40, 0.00, 0.00, -0.01, 1.01
219, 0.00, 16897.16, 0.00, -2994.17, 0.00, 0.00, -6961.43, 0.00, 0.00, 0.00, 0.00
220, 0.00, 16858.71, 0.00, -2953.63, 0.00, 0.00, -7579.19, 0.00, 0.00, 0.00, 0.00
221, 0.00, 16862.18, 0.00, -2954.12, 0.00, 0.00, -7534.21, 0.00, 0.00, 0.00, 0.00
222, 0.00, 16900.53, 0.00, -2997.95, 0.00, 0.00, -6934.58, 0.00, 0.00, 0.00, 0.00
223, 0.00, 16900.69, 0.00, -3004.99, 0.00, 0.00, -6870.52, 0.00, -0.00, -0.01, 1.02
224, 0.00, 16863.27, 0.00, -2958.28, 0.00, 0.00, -7488.88, 0.00, 0.00, 0.00, 0.00
225, 0.00, 16858.62, 0.00, -2945.74, 0.00, 0.00, -7612.47, 0.00, 0.00, 0.00, 0.00
226, 0.00, 16886.99, 0.00, -2984.78, 0.00, 0.00, -7038.25, 0.00, 0.00, 0.00, 0.00
227, 0.00, 16902.37, 0.00, -3006.42, 0.00, 0.00, -6818.82, 0.00, 0.00, 0.00, 0.00
228, 0.00, 16880.73, 0.00, -2965.79, 0.00, 0.00, -7394.11, 0.00, -0.01, -0.01, 1.01
229, 0.00, 16861.66, 0.00, -2942.29, 0.00, 0.00, -7668.03, 0.00, 0.00, 0.00, 0.00
230, 0.00, 16888.96, 0.00, -2981.05, 0.00, 0.00, -7156.13, 0.00, 0.00, 0.00, 0.00
231, 0.00, 16913.10, 0.00, -3011.38, 0.00, 0.00, -6815.81, 0.00, 0.00, 0.00, 0.00
232, 0.00, 16892.46, 0.00, -2975.73, 0.00, 0.00, -7272.72, 0.00, 0.00, 0.00, 0.00
233, 0.00, 16862.00, 0.00, -2939.08, 0.00, 0.00, -7679.66, 0.00, -0.01, -0.01, 1.01
234, 0.00, 16888.17, 0.00, -2970.41, 0.00, 0.00, -7250.17, 0.00, 0.00, 0.00, 0.00
235, 0.00, 16919.00, 0.00, -3008.63, 0.00, 0.00, -6780.36, 0.00, 0.00, 0.00, 0.00
236, 0.00, 16896.87, 0.00, -2983.38, 0.00, 0.00, -7145.67, 0.00, 0.00, 0.00, 0.00
237, 0.00, 16861.71, 0.00, -2943.86, 0.00, 0.00, -7669.91, 0.00, 0.00, 0.00, 0.00
238, 0.00, 16878.05, 0.00, -2965.09, 0.00, 0.00, -7380.46, 0.00, -0.01, -0.00, 1.02
239, 0.00, 16915.44, 0.00, -3010.51, 0.00, 0.00, -6842.87, 0.00, 0.00, 0.00, 0.00
240, 0.00, 16904.56, 0.00, -2996.79, 0.00, 0.00, -7038.36, 0.00, 0.00, 0.00, 0.00
241, 0.00, 16868.77, 0.00, -2953.45, 0.00, 0.00, -7603.71, 0.00, 0.00, 0.00, 0.00
242, 0.00, 16870.67, 0.00, -2957.23, 0.00, 0.00, -7482.98, 0.00, 0.00, 0.00, 0.00
243, 0.00, 16910.05, 0.00, -3001.86, 0.00, 0.00, -6870.14, 0.00, 0.00, 0.00, 0.00
244, 0.00, 16909.07, 0.00, -3003.14, 0.00, 0.00, -6918.58, 0.00, -0.00, 0.00, 1.01
245, 0.00, 16865.42, 0.00, -2959.95, 0.00, 0.00, -7535.31, 0.00, 0.00, 0.00, 0.00
246, 0.00, 16863.45, 0.00, -2957.27, 0.00, 0.00, -7562.98, 0.00, 0.00, 0.00, 0.00
247, 0.00, 16905.67, 0.00, -3002.33, 0.00, 0.00, -6950.63, 0.00, 0.00, 0.00, 0.00
248, 0.00, 16914.77, 0.00, -3012.84, 0.00, 0.00, -6849.85, 0.00, 0.00, 0.00, 0.00
249, 0.00, 16873.82, 0.00, -2968.49, 0.00, 0.00, -7459.47, 0.00, 0.00, -0.00, 1.02
250, 0.00, 16866.92, 0.00, -2951.88, 0.00, 0.00, -7619.15, 0.00, 0.00, 0.00, 0.00
251, 0.00, 16897.83, 0.00, -2994.15, 0.00, 0.00, -7057.76, 0.00, 0.00, 0.00, 0.00
252, 0.00, 16909.36, 0.00, -3015.27, 0.00, 0.00, -6809.28, 0.00, 0.00, 0.00, 0.00
253, 0.00, 16879.25, 0.00, -2977.39, 0.00, 0.00, -7352.72, 0.00, 0.00, 0.00, 0.00
254, 0.00, 16860.70, 0.00, -2951.64, 0.00, 0.00, -7671.43, 0.00, -0.00, -0.00, 1.02
255, 0.00, 16887.57, 0.00, -2984.90, 0.00, 0.00, -7190.53, 0.00, 0.00, 0.00, 0.00
0, 0.00, 16913.12, 0.00, -3018.74, 0.00, 0.00, -6795.24, 0.00, 0.00, 0.00, 0.00
1, 0.00, 16893.29, 0.00, -2989.08, 0.00, 0.00, -7241.45, 0.00, 0.00, 0.00, 0.00
2, 0.00, 16868.10, 0.00, -2954.25, 0.00, 0.00, -7671.16, 0.00, 0.00, 0.00, 0.00
3, 0.00, 16895.73, 0.00, -2981.41, 0.00, 0.00, -7278.93, 0.00, -0.00, -0.01, 1.02
4, 0.00, 16922.33, 0.00, -3020.73, 0.00, 0.00, -6785.27, 0.00, 0.00, 0.00, 0.00
5, 0.00, 16900.58, 0.00, -2999.76, 0.00, 0.00, -7113.15, 0.00, 0.00, 0.00, 0.00
6, 0.00, 16862.47, 0.00, -2956.11, 0.00, 0.00, -7643.04, 0.00, 0.00, 0.00, 0.00
7, 0.00, 16873.40, 0.00, -2971.69, 0.00, 0.00, -7416.13, 0.00, 0.00, 0.00, 0.00
8, 0.00, 16914.30, 0.00, -3020.88, 0.00, 0.00, -6847.88, 0.00, -0.00, -0.00, 1.01
9, 0.00, 16909.83, 0.00, -3016.93, 0.00, 0.00, -7007.99, 0.00, 0.00, 0.00, 0.00
10, 0.00, 16872.64, 0.00, -2965.81, 0.00, 0.00, -7603.10, 0.00, 0.00, 0.00, 0.00
11, 0.00, 16878.88, 0.00, -2965.94, 0.00, 0.00, -7510.30, 0.00, 0.00, 0.00, 0.00
12, 0.00, 16917.30, 0.00, -3013.22, 0.00, 0.00, -6903.63, 0.00, 0.00, 0.00, 0.00
13, 0.00, 16920.92, 0.00, -3016.41, 0.00, 0.00, -6887.18, 0.00, -0.00, -0.01, 1.01
14, 0.00, 16882.07, 0.00, -2972.74, 0.00, 0.00, -7519.53, 0.00, 0.00, 0.00, 0.00
15, 0.00, 16866.47, 0.00, -2965.09, 0.00, 0.00, -7603.55, 0.00, 0.00, 0.00, 0.00
16, 0.00, 16902.34, 0.00, -3012.01, 0.00, 0.00, -7015.23, 0.00, 0.00, 0.00, 0.00
17, 0.00, 16912.38, 0.00, -3025.96, 0.00, 0.00, -6862.30, 0.00, 0.00, 0.00, 0.00
18, 0.00, 16878.92, 0.00, -2974.99, 0.00, 0.00, -7405.38, 0.00, 0.00, 0.00, 0.00
19, 0.00, 16858.80, 0.00, -2951.77, 0.00, 0.00, -7664.23, 0.00, -0.00, -0.01, 1.00
20, 0.00, 16889.80, 0.00, -2997.50, 0.00, 0.00, -7111.79, 0.00, 0.00, 0.00, 0.00
21, 0.00, 16915.13, 0.00, -3025.02, 0.00, 0.00, -6780.76, 0.00, 0.00, 0.00, 0.00
22, 0.00, 16890.05, 0.00, -2988.00, 0.00, 0.00, -7302.27, 0.00, 0.00, 0.00, 0.00
23, 0.00, 16863.05, 0.00, -2960.58, 0.00, 0.00, -7668.64, 0.00, 0.00, 0.00, 0.00
24, 0.00, 16886.88, 0.00, -2995.47, 0.00, 0.00, -7217.58, 0.00, -0.01, -0.00, 1.01
25, 0.00, 16924.47, 0.00, -3027.74, 0.00, 0.00, -6767.04, 0.00, 0.00, 0.00, 0.00
26, 0.00, 16898.43, 0.00, -3000.50, 0.00, 0.00, -7175.07, 0.00, 0.00, 0.00, 0.00
27, 0.00, 16867.25, 0.00, -2958.90, 0.00, 0.00, -7670.72, 0.00, 0.00, 0.00, 0.00
28, 0.00, 16890.81, 0.00, -2981.14, 0.00, 0.00, -7333.54, 0.00, 0.00, 0.00, 0.00
29, 0.00, 16926.95, 0.00, -3028.48, 0.00, 0.00, -6783.02, 0.00, -0.01, -0.00, 1.01
30, 0.00, 16905.36, 0.00, -3012.72, 0.00, 0.00, -7064.92, 0.00, 0.00, 0.00, 0.00
31, 0.00, 16861.80, 0.00, -2961.67, 0.00, 0.00, -7642.96, 0.00, 0.00, 0.00, 0.00
32, 0.00, 16872.19, 0.00, -2971.98, 0.00, 0.00, -7446.13, 0.00, 0.00, 0.00, 0.00
33, 0.00, 16913.30, 0.00, -3018.71, 0.00, 0.00, -6853.20, 0.00, 0.00, 0.00, 0.00
34, 0.00, 16906.75, 0.00, -3018.20, 0.00, 0.00, -6961.88, 0.00, 0.00, -0.00, 1.02
35, 0.00, 16862.85, 0.00, -2969.41, 0.00, 0.00, -7583.10, 0.00, 0.00, 0.00, 0.00
36, 0.00, 16863.47, 0.00, -2968.85, 0.00, 0.00, -7554.62, 0.00, 0.00, 0.00, 0.00
37, 0.00, 16901.14, 0.00, -3018.13, 0.00, 0.00, -6949.05, 0.00, 0.00, 0.00, 0.00
38, 0.00, 16906.79, 0.00, -3024.06, 0.00, 0.00, -6885.07, 0.00, 0.00, 0.00, 0.00
39, 0.00, 16870.96, 0.00, -2976.56, 0.00, 0.00, -7481.04, 0.00, -0.00, -0.00, 1.01
40, 0.00, 16861.11, 0.00, -2965.20, 0.00, 0.00, -7605.05, 0.00, 0.00, 0.00, 0.00
41, 0.00, 16904.18, 0.00, -3007.70, 0.00, 0.00, -7010.74, 0.00, 0.00, 0.00, 0.00
42, 0.00, 16918.01, 0.00, -3025.44, 0.00, 0.00, -6830.56, 0.00, 0.00, 0.00, 0.00
43, 0.00, 16876.24, 0.00, -2982.37, 0.00, 0.00, -7406.50, 0.00, 0.00, 0.00, 0.00
44, 0.00, 16852.57, 0.00, -2964.15, 0.00, 0.00, -7653.62, 0.00, -0.00, -0.01, 1.01
45, 0.00, 16887.32, 0.00, -3002.29, 0.00, 0.00, -7130.18, 0.00, 0.00, 0.00, 0.00
46, 0.00, 16905.03, 0.00, -3029.67, 0.00, 0.00, -6799.89, 0.00, 0.00, 0.00, 0.00
47, 0.00, 16873.24, 0.00, -2993.50, 0.00, 0.00, -7278.17, 0.00, 0.00, 0.00, 0.00
48, 0.00, 16844.79, 0.00, -2962.25, 0.00, 0.00, -7676.73, 0.00, 0.00, 0.00, 0.00
49, 0.00, 16872.13, 0.00, -2994.11, 0.00, 0.00, -7244.74, 0.00, 0.00, -0.01, 1.02
50, 0.00, 16907.48, 0.00, -3031.39, 0.00, 0.00, -6776.83, 0.00, 0.00, 0.00, 0.00
51, 0.00, 16884.37, 0.00, -3002.64, 0.00, 0.00, -7161.86, 0.00, 0.00, 0.00, 0.00
52, 0.00, 16848.77, 0.00, -2964.49, 0.00, 0.00, -7674.25, 0.00, 0.00, 0.00, 0.00
53, 0.00, 16869.08, 0.00, -2985.46, 0.00, 0.00, -7376.17, 0.00, 0.00, 0.00, 0.00
54, 0.00, 16906.66, 0.00, -3029.40, 0.00, 0.00, -6811.49, 0.00, 0.00, 0.00, 0.00
55, 0.00, 16895.41, 0.00, -3015.72, 0.00, 0.00, -7028.39, 0.00, 0.01, -0.01, 1.02
56, 0.00, 16851.79, 0.00, -2972.60, 0.00, 0.00, -7621.61, 0.00, 0.00, 0.00, 0.00
57, 0.00, 16862.78, 0.00, -2980.34, 0.00, 0.00, -7473.19, 0.00, 0.00, 0.00, 0.00
58, 0.00, 16906.37, 0.00, -3020.95, 0.00, 0.00, -6870.90, 0.00, 0.00, 0.00, 0.00
59, 0.00, 16903.73, 0.00, -3022.98, 0.00, 0.00, -6933.38, 0.00, 0.00, 0.00, 0.00
60, 0.00, 16858.51, 0.00, -2974.57, 0.00, 0.00, -7555.90, 0.00, -0.00, 0.00, 1.02
61, 0.00, 16850.62, 0.00, -2965.43, 0.00, 0.00, -7570.45, 0.00, 0.00, 0.00, 0.00
62, 0.00, 16898.77, 0.00, -3010.76, 0.00, 0.00, -6945.07, 0.00, 0.00, 0.00, 0.00
63, 0.00, 16908.89, 0.00, -3028.37, 0.00, 0.00, -6853.69, 0.00, 0.00, 0.00, 0.00
64, 0.00, 16862.38, 0.00, -2985.32, 0.00, 0.00, -7480.55, 0.00, 0.00, 0.00, 0.00
65, 0.00, 16850.20, 0.00, -2968.07, 0.00, 0.00, -7630.71, 0.00, -0.01, -0.01, 1.02
66, 0.00, 16890.36, 0.00, -3004.97, 0.00, 0.00, -7059.75, 0.00, 0.00, 0.00, 0.00
67, 0.00, 16910.73, 0.00, -3026.34, 0.00, 0.00, -6831.65, 0.00, 0.00, 0.00, 0.00
68, 0.00, 16876.71, 0.00, -2986.28, 0.00, 0.00, -7379.52, 0.00, 0.00, 0.00, 0.00
69, 0.00, 16848.59, 0.00, -2954.14, 0.00, 0.00, -7702.88, 0.00, 0.00, 0.00, 0.00
70, 0.00, 16883.63, 0.00, -2989.55, 0.00, 0.00, -7197.19, 0.00, -0.01, -0.00, 1.02
71, 0.00, 16906.93, 0.00, -3024.10, 0.00, 0.00, -6756.10, 0.00, 0.00, 0.00, 0.00
72, 0.00, 16880.13, 0.00, -2992.23, 0.00, 0.00, -7214.34, 0.00, 0.00, 0.00, 0.00
73, 0.00, 16848.19, 0.00, -2956.60, 0.00, 0.00, -7665.35, 0.00, 0.00, 0.00, 0.00
74, 0.00, 16874.18, 0.00, -2978.30, 0.00, 0.00, -7274.87, 0.00, 0.00, 0.00, 0.00
75, 0.00, 16911.06, 0.00, -3018.65, 0.00, 0.00, -6775.33, 0.00, -0.01, -0.00, 1.01
76, 0.00, 16896.20, 0.00, -2997.57, 0.00, 0.00, -7106.92, 0.00, 0.00, 0.00, 0.00
77, 0.00, 16855.88, 0.00, -2952.13, 0.00, 0.00, -7661.15, 0.00, 0.00, 0.00, 0.00
78, 0.00, 16869.53, 0.00, -2964.44, 0.00, 0.00, -7420.58, 0.00, 0.00, 0.00, 0.00
79, 0.00, 16908.42, 0.00, -3012.99, 0.00, 0.00, -6832.41, 0.00, 0.00, 0.00, 0.00
80, 0.00, 16897.14, 0.00, -3018.45, 0.00, 0.00, -7001.55, 0.00, -0.01, -0.00, 1.01
81, 0.00, 16852.75, 0.00, -2975.49, 0.00, 0.00, -7608.29, 0.00, 0.00, 0.00, 0.00
82, 0.00, 16854.53, 0.00, -2979.35, 0.00, 0.00, -7517.47, 0.00, 0.00, 0.00, 0.00
83, 0.00, 16890.81, 0.00, -3031.23, 0.00, 0.00, -6912.86, 0.00, 0.00, 0.00, 0.00
84, 0.00, 16895.19, 0.00, -3034.56, 0.00, 0.00, -6917.66, 0.00, 0.00, 0.00, 0.00
85, 0.00, 16856.66, 0.00, -2985.39, 0.00, 0.00, -7527.29, 0.00, -0.00, -0.01, 1.01
86, 0.00, 16853.28, 0.00, -2976.22, 0.00, 0.00, -7602.48, 0.00, 0.00, 0.00, 0.00
87, 0.00, 16899.10, 0.00, -3021.75, 0.00, 0.00, -7005.73, 0.00, 0.00, 0.00, 0.00
88, 0.00, 16903.01, 0.00, -3037.83, 0.00, 0.00, -6847.17, 0.00, 0.00, 0.00, 0.00
89, 0.00, 16859.67, 0.00, -2996.52, 0.00, 0.00, -7451.87, 0.00, 0.00, 0.00, 0.00
90, 0.00, 16843.89, 0.00, -2971.95, 0.00, 0.00, -7660.19, 0.00, 0.00, 0.00, 0.00
91, 0.00, 16877.00, 0.00, -3015.70, 0.00, 0.00, -7095.29, 0.00, -0.01, -0.00, 1.01
92, 0.00, 16896.67, 0.00, -3041.20, 0.00, 0.00, -6809.88, 0.00, 0.00, 0.00, 0.00
93, 0.00, 16860.43, 0.00, -2998.82, 0.00, 0.00, -7337.56, 0.00, 0.00, 0.00, 0.00
94, 0.00, 16831.49, 0.00, -2969.81, 0.00, 0.00, -7667.48, 0.00, 0.00, 0.00, 0.00
95, 0.00, 16866.54, 0.00, -2994.17, 0.00, 0.00, -7202.85, 0.00, 0.00, 0.00, 0.00
96, 0.00, 16901.67, 0.00, -3000.81, 0.00, 0.00, -6750.83, 0.00, 0.00, -0.00, 1.01
97, 0.00, 16879.17, 0.00, -2950.39, 0.00, 0.00, -7162.71, 0.00, 0.00, 0.00, 0.00
98, 0.00, 16847.25, 0.00, -2902.33, 0.00, 0.00, -7664.44, 0.00, 0.00, 0.00, 0.00
99, 0.00, 16871.07, 0.00, -2909.33, 0.00, 0.00, -7323.24, 0.00, 0.00, 0.00, 0.00
100, 0.00, 16908.63, 0.00, -2943.05, 0.00, 0.00, -6793.30, 0.00, 0.00, 0.00, 0.00
101, 0.00, 16898.01, 0.00, -2949.63, 0.00, 0.00, -7069.21, 0.00, -0.01, -0.00, 1.01
102, 0.00, 16849.06, 0.00, -2911.07, 0.00, 0.00, -7644.21, 0.00, 0.00, 0.00, 0.00
103, 0.00, 16857.57, 0.00, -2921.64, 0.00, 0.00, -7450.77, 0.00, 0.00, 0.00, 0.00
104, 0.00, 16895.71, 0.00, -2993.46, 0.00, 0.00, -6853.58, 0.00, 0.00, 0.00, 0.00
105, 0.00, 16892.15, 0.00, -3022.98, 0.00, 0.00, -6966.75, 0.00, 0.00, 0.00, 0.00
106, 0.00, 16855.05, 0.00, -2991.24, 0.00, 0.00, -7580.46, 0.00, -0.01, -0.01, 1.01
107, 0.00, 16854.09, 0.00, -2980.47, 0.00, 0.00, -7533.25, 0.00, 0.00, 0.00, 0.00
108, 0.00, 16888.57, 0.00, -3019.25, 0.00, 0.00, -6931.72, 0.00, 0.00, 0.00, 0.00
109, 0.00, 16889.71, 0.00, -3029.35, 0.00, 0.00, -6876.09, 0.00, 0.00, 0.00, 0.00
110, 0.00, 16855.67, 0.00, -2983.20, 0.00, 0.00, -7467.76, 0.00, 0.00, 0.00, 0.00
111, 0.00, 16846.02, 0.00, -2967.82, 0.00, 0.00, -7621.21, 0.00, -0.01, -0.00, 1.01
112, 0.00, 16883.57, 0.00, -3009.68, 0.00, 0.00, -7022.81, 0.00, 0.00, 0.00, 0.00
113, 0.00, 16897.45, 0.00, -3031.37, 0.00, 0.00, -6811.78, 0.00, 0.00, 0.00, 0.00
114, 0.00, 16863.79, 0.00, -2990.15, 0.00, 0.00, -7399.41, 0.00, 0.00, 0.00, 0.00
115, 0.00, 16841.68, 0.00, -2966.17, 0.00, 0.00, -7677.09, 0.00, 0.00, 0.00, 0.00
116, 0.00, 16876.15, 0.00, -3001.44, 0.00, 0.00, -7135.50, 0.00, -0.01, -0.01, 1.02
117, 0.00, 16906.21, 0.00, -3034.81, 0.00, 0.00, -6778.39, 0.00, 0.00, 0.00, 0.00
118, 0.00, 16872.24, 0.00, -3002.04, 0.00, 0.00, -7259.71, 0.00, 0.00, 0.00, 0.00
119, 0.00, 16842.13, 0.00, -2968.24, 0.00, 0.00, -7672.50, 0.00, 0.00, 0.00, 0.00
120, 0.00, 16868.15, 0.00, -2996.16, 0.00, 0.00, -7251.82, 0.00, 0.00, 0.00, 0.00
121, 0.00, 16902.68, 0.00, -3031.84, 0.00, 0.00, -6779.46, 0.00, 0.00, 0.00, 0.00
122, 0.00, 16884.02, 0.00, -3004.70, 0.00, 0.00, -7151.93, 0.00, -0.00, -0.01, 1.02
123, 0.00, 16854.29, 0.00, -2962.03, 0.00, 0.00, -7696.76, 0.00, 0.00, 0.00, 0.00
124, 0.00, 16873.71, 0.00, -2981.54, 0.00, 0.00, -7346.53, 0.00, 0.00, 0.00, 0.00
125, 0.00, 16913.41, 0.00, -3030.56, 0.00, 0.00, -6794.64, 0.00, 0.00, 0.00, 0.00
126, 0.00, 16902.34, 0.00, -3012.95, 0.00, 0.00, -7024.57, 0.00, 0.00, 0.00, 0.00
127, 0.00, 16856.41, 0.00, -2963.98, 0.00, 0.00, -7616.07, 0.00, 0.00, -0.01, 1.02
128, 0.00, 16864.73, 0.00, -2972.85, 0.00, 0.00, -7469.33, 0.00, 0.00, 0.00, 0.00
129, 0.00, 16908.94, 0.00, -3018.87, 0.00, 0.00, -6868.56, 0.00, 0.00, 0.00, 0.00
130, 0.00, 16899.55, 0.00, -3011.74, 0.00, 0.00, -6942.56, 0.00, 0.00, 0.00, 0.00
131, 0.00, 16856.50, 0.00, -2967.75, 0.00, 0.00, -7564.19, 0.00, 0.00, 0.00, 0.00
132, 0.00, 16853.19, 0.00, -2963.10, 0.00, 0.00, -7571.43, 0.00, 0.00, -0.01, 1.02
133, 0.00, 16896.96, 0.00, -3006.69, 0.00, 0.00, -6968.00, 0.00, 0.00, 0.00, 0.00
134, 0.00, 16908.11, 0.00, -3018.54, 0.00, 0.00, -6872.49, 0.00, 0.00, 0.00, 0.00
135, 0.00, 16875.77, 0.00, -2970.19, 0.00, 0.00, -7471.27, 0.00, 0.00, 0.00, 0.00
136, 0.00, 16860.66, 0.00, -2952.53, 0.00, 0.00, -7658.38, 0.00, 0.00, 0.00, 0.00
137, 0.00, 16907.78, 0.00, -2994.55, 0.00, 0.00, -7070.77, 0.00, -0.00, -0.01, 1.02
138, 0.00, 16930.69, 0.00, -3015.52, 0.00, 0.00, -6801.21, 0.00, 0.00, 0.00, 0.00
139, 0.00, 16894.21, 0.00, -2971.87, 0.00, 0.00, -7321.11, 0.00, 0.00, 0.00, 0.00
140, 0.00, 16867.74, 0.00, -2940.01, 0.00, 0.00, -7638.51, 0.00, 0.00, 0.00, 0.00
141, 0.00, 16897.67, 0.00, -2976.49, 0.00, 0.00, -7153.81, 0.00, 0.00, 0.00, 0.00
142, 0.00, 16922.13, 0.00, -3006.31, 0.00, 0.00, -6762.92, 0.00, 0.00, -0.01, 1.02
143, 0.00, 16894.59, 0.00, -2969.14, 0.00, 0.00, -7215.72, 0.00, 0.00, 0.00, 0.00
144, 0.00, 16862.38, 0.00, -2932.12, 0.00, 0.00, -7688.02, 0.00, 0.00, 0.00, 0.00
145, 0.00, 16882.81, 0.00, -2953.25, 0.00, 0.00, -7297.67, 0.00, 0.00, 0.00, 0.00
146, 0.00, 16918.39, 0.00, -2989.50, 0.00, 0.00, -6778.37, 0.00, 0.00, 0.00, 0.00
147, 0.00, 16902.77, 0.00, -2966.23, 0.00, 0.00, -7104.21, 0.00, -0.00, -0.00, 1.01
148, 0.00, 16857.62, 0.00, -2908.34, 0.00, 0.00, -7661.26, 0.00, 0.00, 0.00, 0.00
149, 0.00, 16866.00, 0.00, -2920.14, 0.00, 0.00, -7417.83, 0.00, 0.00, 0.00, 0.00
150, 0.00, 16907.28, 0.00, -2966.03, 0.00, 0.00, -6831.99, 0.00, 0.00, 0.00, 0.00
151, 0.00, 16905.23, 0.00, -2956.29, 0.00, 0.00, -7005.95, 0.00, 0.00, 0.00, 0.00
152, 0.00, 16865.87, 0.00, -2900.27, 0.00, 0.00, -7611.42, 0.00, -0.01, -0.01, 1.00
153, 0.00, 16863.47, 0.00, -2895.82, 0.00, 0.00, -7511.50, 0.00, 0.00, 0.00, 0.00
154, 0.00, 16913.27, 0.00, -2936.48, 0.00, 0.00, -6885.50, 0.00, 0.00, 0.00, 0.00
155, 0.00, 16915.84, 0.00, -2937.44, 0.00, 0.00, -6900.74, 0.00, 0.00, 0.00, 0.00
156, 0.00, 16873.26, 0.00, -2886.84, 0.00, 0.00, -7511.46, 0.00, 0.00, 0.00, 0.00
157, 0.00, 16863.56, 0.00, -2874.46, 0.00, 0.00, -7593.20, 0.00, 0.00, 0.00, 0.00
158, 0.00, 16900.91, 0.00, -2917.44, 0.00, 0.00, -6999.74, 0.00, -0.00, -0.00, 1.01
159, 0.00, 16915.44, 0.00, -2936.84, 0.00, 0.00, -6843.93, 0.00, 0.00, 0.00, 0.00
160, 0.00, 16878.34, 0.00, -2895.76, 0.00, 0.00, -7426.12, 0.00, 0.00, 0.00, 0.00
161, 0.00, 16863.18, 0.00, -2876.58, 0.00, 0.00, -7638.95, 0.00, 0.00, 0.00, 0.00
162, 0.00, 16896.44, 0.00, -2917.93, 0.00, 0.00, -7083.40, 0.00, 0.00, 0.00, 0.00
163, 0.00, 16915.49, 0.00, -2949.33, 0.00, 0.00, -6784.18, 0.00, -0.00, 0.00, 1.01
164, 0.00, 16885.71, 0.00, -2920.03, 0.00, 0.00, -7314.05, 0.00, 0.00, 0.00, 0.00
165, 0.00, 16859.14, 0.00, -2899.36, 0.00, 0.00, -7676.55, 0.00, 0.00, 0.00, 0.00
166, 0.00, 16883.21, 0.00, -2938.38, 0.00, 0.00, -7209.15, 0.00, 0.00, 0.00, 0.00
167, 0.00, 16912.83, 0.00, -2985.32, 0.00, 0.00, -6782.21, 0.00, 0.00, 0.00, 0.00
168, 0.00, 16887.99, 0.00, -2968.13, 0.00, 0.00, -7199.03, 0.00, -0.01, -0.00, 1.01
169, 0.00, 16855.49, 0.00, -2935.32, 0.00, 0.00, -7679.75, 0.00, 0.00, 0.00, 0.00
170, 0.00, 16876.93, 0.00, -2968.07, 0.00, 0.00, -7321.51, 0.00, 0.00, 0.00, 0.00
171, 0.00, 16911.93, 0.00, -3010.65, 0.00, 0.00, -6801.50, 0.00, 0.00, 0.00, 0.00
172, 0.00, 16894.10, 0.00, -2996.34, 0.00, 0.00, -7082.69, 0.00, 0.00, 0.00, 0.00
173, 0.00, 16856.03, 0.00, -2961.20, 0.00, 0.00, -7655.99, 0.00, 0.00, -0.01, 1.02
174, 0.00, 16864.64, 0.00, -2977.95, 0.00, 0.00, -7438.75, 0.00, 0.00, 0.00, 0.00
175, 0.00, 16900.60, 0.00, -3026.00, 0.00, 0.00, -6862.97, 0.00, 0.00, 0.00, 0.00
176, 0.00, 16900.42, 0.00, -3023.07, 0.00, 0.00, -6985.19, 0.00, 0.00, 0.00, 0.00
177, 0.00, 16860.77, 0.00, -2973.88, 0.00, 0.00, -7570.56, 0.00, 0.00, 0.00, 0.00
178, 0.00, 16860.14, 0.00, -2972.65, 0.00, 0.00, -7533.25, 0.00, -0.00, -0.01, 1.02
179, 0.00, 16903.82, 0.00, -3025.22, 0.00, 0.00, -6909.28, 0.00, 0.00, 0.00, 0.00
180, 0.00, 16914.30, 0.00, -3035.01, 0.00, 0.00, -6862.66, 0.00, 0.00, 0.00, 0.00
181, 0.00, 16874.40, 0.00, -2990.22, 0.00, 0.00, -7481.22, 0.00, 0.00, 0.00, 0.00
182, 0.00, 16860.08, 0.00, -2977.68, 0.00, 0.00, -7606.28, 0.00, 0.00, 0.00, 0.00
183, 0.00, 16902.23, 0.00, -3020.88, 0.00, 0.00, -7037.07, 0.00, -0.01, -0.01, 1.01
184, 0.00, 16917.90, 0.00, -3038.34, 0.00, 0.00, -6809.01, 0.00, 0.00, 0.00, 0.00
185, 0.00, 16880.91, 0.00, -3003.58, 0.00, 0.00, -7375.36, 0.00, 0.00, 0.00, 0.00
186, 0.00, 16862.47, 0.00, -2981.32, 0.00, 0.00, -7651.94, 0.00, 0.00, 0.00, 0.00
187, 0.00, 16884.48, 0.00, -3015.81, 0.00, 0.00, -7131.30, 0.00, 0.00, 0.00, 0.00
188, 0.00, 16910.23, 0.00, -3043.68, 0.00, 0.00, -6780.96, 0.00, -0.01, -0.01, 1.01
189, 0.00, 16883.35, 0.00, -3010.71, 0.00, 0.00, -7258.84, 0.00, 0.00, 0.00, 0.00
190, 0.00, 16853.86, 0.00, -2976.83, 0.00, 0.00, -7671.81, 0.00, 0.00, 0.00, 0.00
191, 0.00, 16885.76, 0.00, -3008.50, 0.00, 0.00, -7252.47, 0.00, 0.00, 0.00, 0.00
192, 0.00, 16914.86, 0.00, -3043.73, 0.00, 0.00, -6787.55, 0.00, 0.00, 0.00, 0.00
193, 0.00, 16887.39, 0.00, -3023.10, 0.00, 0.00, -7156.04, 0.00, 0.00, 0.00, 0.00
194, 0.00, 16858.00, 0.00, -2979.67, 0.00, 0.00, -7663.21, 0.00, -0.01, -0.01, 1.01
195, 0.00, 16877.91, 0.00, -2993.88, 0.00, 0.00, -7373.04, 0.00, 0.00, 0.00, 0.00
196, 0.00, 16916.54, 0.00, -3040.62, 0.00, 0.00, -6815.31, 0.00, 0.00, 0.00, 0.00
197, 0.00, 16902.59, 0.00, -3028.46, 0.00, 0.00, -7040.67, 0.00, 0.00, 0.00, 0.00
198, 0.00, 16859.59, 0.00, -2976.98, 0.00, 0.00, -7631.40, 0.00, 0.00, 0.00, 0.00
199, 0.00, 16865.82, 0.00, -2990.86, 0.00, 0.00, -7458.49, 0.00, -0.01, -0.01, 1.02
200, 0.00, 16909.14, 0.00, -3035.72, 0.00, 0.00, -6877.27, 0.00, 0.00, 0.00, 0.00
201, 0.00, 16905.94, 0.00, -3031.43, 0.00, 0.00, -6940.31, 0.00, 0.00, 0.00, 0.00
202, 0.00, 16865.98, 0.00, -2988.47, 0.00, 0.00, -7553.15, 0.00, 0.00, 0.00, 0.00
203, 0.00, 16863.52, 0.00, -2984.40, 0.00, 0.00, -7572.41, 0.00, 0.00, 0.00, 0.00
204, 0.00, 16908.07, 0.00, -3027.57, 0.00, 0.00, -6928.24, 0.00, -0.00, -0.01, 1.01
205, 0.00, 16921.59, 0.00, -3039.97, 0.00, 0.00, -6820.68, 0.00, 0.00, 0.00, 0.00
206, 0.00, 16879.88, 0.00, -2996.30, 0.00, 0.00, -7418.68, 0.00, 0.00, 0.00, 0.00
207, 0.00, 16859.94, 0.00, -2982.59, 0.00, 0.00, -7602.68, 0.00, 0.00, 0.00, 0.00
208, 0.00, 16899.88, 0.00, -3027.70, 0.00, 0.00, -7030.81, 0.00, 0.00, 0.00, 0.00
209, 0.00, 16925.16, 0.00, -3045.20, 0.00, 0.00, -6770.59, 0.00, 0.00, -0.00, 1.02
210, 0.00, 16888.53, 0.00, -3009.77, 0.00, 0.00, -7316.82, 0.00, 0.00, 0.00, 0.00
211, 0.00, 16862.89, 0.00, -2982.44, 0.00, 0.00, -7639.87, 0.00, 0.00, 0.00, 0.00
212, 0.00, 16889.29, 0.00, -3016.14, 0.00, 0.00, -7146.86, 0.00, 0.00, 0.00, 0.00
213, 0.00, 16911.46, 0.00, -3046.59, 0.00, 0.00, -6771.13, 0.00, 0.00, 0.00, 0.00
214, 0.00, 16880.19, 0.00, -3015.52, 0.00, 0.00, -7234.23, 0.00, -0.00, -0.01, 1.01
215, 0.00, 16852.28, 0.00, -2979.60, 0.00, 0.00, -7672.53, 0.00, 0.00, 0.00, 0.00
216, 0.00, 16876.51, 0.00, -3005.17, 0.00, 0.00, -7285.73, 0.00, 0.00, 0.00, 0.00
217, 0.00, 16916.04, 0.00, -3049.56, 0.00, 0.00, -6788.72, 0.00, 0.00, 0.00, 0.00
218, 0.00, 16890.56, 0.00, -3026.18, 0.00, 0.00, -7135.15, 0.00, 0.00, 0.00, 0.00
219, 0.00, 16846.31, 0.00, -2986.44, 0.00, 0.00, -7680.71, 0.00, -0.00, -0.01, 1.01
220, 0.00, 16863.45, 0.00, -3002.38, 0.00, 0.00, -7421.99, 0.00, 0.00, 0.00, 0.00
221, 0.00, 16906.39, 0.00, -3045.67, 0.00, 0.00, -6808.56, 0.00, 0.00, 0.00, 0.00
222, 0.00, 16905.76, 0.00, -3037.53, 0.00, 0.00, -6984.85, 0.00, 0.00, 0.00, 0.00
223, 0.00, 16867.12, 0.00, -2991.58, 0.00, 0.00, -7609.18, 0.00, 0.00, 0.00, 0.00
224, 0.00, 16866.87, 0.00, -2997.53, 0.00, 0.00, -7512.26, 0.00, 0.00, 0.00, 0.00
225, 0.00, 16910.46, 0.00, -3043.28, 0.00, 0.00, -6893.12, 0.00, 0.00, -0.01, 1.02
226, 0.00, 16909.05, 0.00, -3043.70, 0.00, 0.00, -6906.35, 0.00, 0.00, 0.00, 0.00
227, 0.00, 16865.55, 0.00, -2996.03, 0.00, 0.00, -7525.88, 0.00, 0.00, 0.00, 0.00
228, 0.00, 16857.55, 0.00, -2987.27, 0.00, 0.00, -7586.16, 0.00, 0.00, 0.00, 0.00
229, 0.00, 16893.18, 0.00, -3031.92, 0.00, 0.00, -6974.17, 0.00, 0.00, 0.00, 0.00
230, 0.00, 16905.83, 0.00, -3051.26, 0.00, 0.00, -6831.83, 0.00, -0.00, -0.01, 1.02
231, 0.00, 16872.19, 0.00, -3009.10, 0.00, 0.00, -7417.63, 0.00, 0.00, 0.00, 0.00
232, 0.00, 16854.02, 0.00, -2985.88, 0.00, 0.00, -7647.72, 0.00, 0.00, 0.00, 0.00
233, 0.00, 16888.17, 0.00, -3026.85, 0.00, 0.00, -7106.74, 0.00, 0.00, 0.00, 0.00
234, 0.00, 16913.07, 0.00, -3051.82, 0.00, 0.00, -6789.25, 0.00, 0.00, 0.00, 0.00
235, 0.00, 16875.54, 0.00, -3017.13, 0.00, 0.00, -7314.00, 0.00, -0.01, -0.01, 1.01
236, 0.00, 16853.30, 0.00, -2987.49, 0.00, 0.00, -7681.15, 0.00, 0.00, 0.00, 0.00
237, 0.00, 16880.39, 0.00, -3020.17, 0.00, 0.00, -7221.31, 0.00, 0.00, 0.00, 0.00
238, 0.00, 16910.01, 0.00, -3056.87, 0.00, 0.00, -6795.00, 0.00, 0.00, 0.00, 0.00
239, 0.00, 16884.06, 0.00, -3025.73, 0.00, 0.00, -7193.62, 0.00, 0.00, 0.00, 0.00
240, 0.00, 16853.19, 0.00, -2986.04, 0.00, 0.00, -7674.05, 0.00, -0.01, -0.01, 1.02
241, 0.00, 16871.79, 0.00, -3014.29, 0.00, 0.00, -7354.62, 0.00, 0.00, 0.00, 0.00
242, 0.00, 16908.00, 0.00, -3054.16, 0.00, 0.00, -6833.53, 0.00, 0.00, 0.00, 0.00
243, 0.00, 16891.41, 0.00, -3037.74, 0.00, 0.00, -7086.58, 0.00, 0.00, 0.00, 0.00
244, 0.00, 16855.65, 0.00, -2994.93, 0.00, 0.00, -7648.86, 0.00, 0.00, 0.00, 0.00
245, 0.00, 16859.32, 0.00, -3003.45, 0.00, 0.00, -7435.35, 0.00, -0.01, -0.01, 1.02
246, 0.00, 16902.23, 0.00, -3049.43, 0.00, 0.00, -6865.34, 0.00, 0.00, 0.00, 0.00
247, 0.00, 16897.27, 0.00, -3047.75, 0.00, 0.00, -6959.64, 0.00, 0.00, 0.00, 0.00
248, 0.00, 16860.59, 0.00, -3003.63, 0.00, 0.00, -7563.38, 0.00, 0.00, 0.00, 0.00
249, 0.00, 16866.13, 0.00, -3002.64, 0.00, 0.00, -7543.38, 0.00, 0.00, 0.00, 0.00
250, 0.00, 16899.88, 0.00, -3043.19, 0.00, 0.00, -6954.43, 0.00, -0.01, -0.00, 1.01
251, 0.00, 16902.59, 0.00, -3052.67, 0.00, 0.00, -6878.82, 0.00, 0.00, 0.00, 0.00
252, 0.00, 16863.74, 0.00, -3011.38, 0.00, 0.00, -7491.46, 0.00, 0.00, 0.00, 0.00
253, 0.00, 16850.76, 0.00, -2996.18, 0.00, 0.00, -7610.88, 0.00, 0.00, 0.00, 0.00
254, 0.00, 16886.47, 0.00, -3037.29, 0.00, 0.00, -7015.56, 0.00, 0.00, 0.00, 0.00
255, 0.00, 16904.76, 0.00, -3058.10, 0.00, 0.00, -6800.38, 0.00, -0.01, -0.00, 1.01
0, 0.00, 16871.52, 0.00, -3017.98, 0.00, 0.00, -7367.94, 0.00, 0.00, 0.00, 0.00
1, 0.00, 16850.20, 0.00, -2994.26, 0.00, 0.00, -7661.37, 0.00, 0.00, 0.00, 0.00
2, 0.00, 16876.71, 0.00, -3025.69, 0.00, 0.00, -7153.85, 0.00, 0.00, 0.00, 0.00
3, 0.00, 16909.27, 0.00, -3058.75, 0.00, 0.00, -6756.08, 0.00, 0.00, 0.00, 0.00
4, 0.00, 16878.32, 0.00, -3027.34, 0.00, 0.00, -7246.59, 0.00, 0.00, 0.00, 0.00
5, 0.00, 16842.13, 0.00, -2991.78, 0.00, 0.00, -7677.24, 0.00, 0.00, -0.00, 1.01
6, 0.00, 16868.26, 0.00, -3019.72, 0.00, 0.00, -7264.29, 0.00, 0.00, 0.00, 0.00
7, 0.00, 16905.65, 0.00, -3057.88, 0.00, 0.00, -6780.45, 0.00, 0.00, 0.00, 0.00
8, 0.00, 16882.23, 0.00, -3033.06, 0.00, 0.00, -7153.27, 0.00, 0.00, 0.00, 0.00
9, 0.00, 16847.83, 0.00, -2995.63, 0.00, 0.00, -7671.88, 0.00, 0.00, 0.00, 0.00
10, 0.00, 16868.01, 0.00, -3018.02, 0.00, 0.00, -7363.36, 0.00, 0.00, -0.00, 1.01
11, 0.00, 16907.66, 0.00, -3058.59, 0.00, 0.00, -6815.58, 0.00, 0.00, 0.00, 0.00
12, 0.00, 16894.30, 0.00, -3043.73, 0.00, 0.00, -7058.55, 0.00, 0.00, 0.00, 0.00
13, 0.00, 16847.54, 0.00, -2993.68, 0.00, 0.00, -7632.16, 0.00, 0.00, 0.00, 0.00
14, 0.00, 16854.31, 0.00, -3006.71, 0.00, 0.00, -7483.83, 0.00, 0.00, 0.00, 0.00
15, 0.00, 16899.13, 0.00, -3053.74, 0.00, 0.00, -6863.28, 0.00, -0.00, -0.01, 1.01
16, 0.00, 16900.06, 0.00, -3051.95, 0.00, 0.00, -6916.90, 0.00, 0.00, 0.00, 0.00
17, 0.00, 16859.38, 0.00, -3007.85, 0.00, 0.00, -7554.02, 0.00, 0.00, 0.00, 0.00
18, 0.00, 16859.90, 0.00, -2997.41, 0.00, 0.00, -7582.87, 0.00, 0.00, 0.00, 0.00
19, 0.00, 16900.40, 0.00, -3048.00, 0.00, 0.00, -6954.97, 0.00, 0.00, 0.00, 0.00
20, 0.00, 16913.21, 0.00, -3062.35, 0.00, 0.00, -6811.83, 0.00, -0.01, -0.00, 1.01
21, 0.00, 16872.57, 0.00, -3011.70, 0.00, 0.00, -7411.35, 0.00, 0.00, 0.00, 0.00
22, 0.00, 16847.18, 0.00, -2992.03, 0.00, 0.00, -7617.07, 0.00, 0.00, 0.00, 0.00
23, 0.00, 16886.74, 0.00, -3034.25, 0.00, 0.00, -7059.71, 0.00, 0.00, 0.00, 0.00
24, 0.00, 16912.36, 0.00, -3059.48, 0.00, 0.00, -6785.14, 0.00, 0.00, 0.00, 0.00
25, 0.00, 16877.09, 0.00, -3020.08, 0.00, 0.00, -7336.04, 0.00, -0.00, -0.00, 1.02
26, 0.00, 16850.20, 0.00, -2994.44, 0.00, 0.00, -7659.94, 0.00, 0.00, 0.00, 0.00
27, 0.00, 16877.94, 0.00, -3033.06, 0.00, 0.00, -7171.02, 0.00, 0.00, 0.00, 0.00
28, 0.00, 16912.87, 0.00, -3064.51, 0.00, 0.00, -6772.56, 0.00, 0.00, 0.00, 0.00
29, 0.00, 16884.28, 0.00, -3031.70, 0.00, 0.00, -7227.24, 0.00, 0.00, 0.00, 0.00
30, 0.00, 16853.01, 0.00, -2996.23, 0.00, 0.00, -7682.21, 0.00, -0.00, -0.00, 1.02
31, 0.00, 16876.21, 0.00, -3019.25, 0.00, 0.00, -7288.43, 0.00, 0.00, 0.00, 0.00
32, 0.00, 16914.26, 0.00, -3058.66, 0.00, 0.00, -6795.87, 0.00, 0.00, 0.00, 0.00
33, 0.00, 16897.54, 0.00, -3036.73, 0.00, 0.00, -7114.31, 0.00, 0.00, 0.00, 0.00
34, 0.00, 16860.99, 0.00, -2994.71, 0.00, 0.00, -7653.04, 0.00, 0.00, 0.00, 0.00
35, 0.00, 16876.04, 0.00, -3008.14, 0.00, 0.00, -7435.08, 0.00, 0.00, 0.00, 0.00
36, 0.00, 16915.24, 0.00, -3052.67, 0.00, 0.00, -6857.09, 0.00, -0.01, -0.00, 1.02
37, 0.00, 16910.84, 0.00, -3044.04, 0.00, 0.00, -6979.69, 0.00, 0.00, 0.00, 0.00
38, 0.00, 16872.86, 0.00, -2995.92, 0.00, 0.00, -7591.14, 0.00, 0.00, 0.00, 0.00
39, 0.00, 16864.90, 0.00, -2996.99, 0.00, 0.00, -7501.71, 0.00, 0.00, 0.00, 0.00
40, 0.00, 16908.76, 0.00, -3045.07, 0.00, 0.00, -6868.31, 0.00, 0.00, 0.00, 0.00
41, 0.00, 16908.67, 0.00, -3049.65, 0.00, 0.00, -6902.31, 0.00, -0.01, -0.01, 1.02
42, 0.00, 16860.97, 0.00, -2995.49, 0.00, 0.00, -7547.60, 0.00, 0.00, 0.00, 0.00
43, 0.00, 16858.02, 0.00, -2981.68, 0.00, 0.00, -7590.63, 0.00, 0.00, 0.00, 0.00
44, 0.00, 16904.00, 0.00, -3027.57, 0.00, 0.00, -6965.61, 0.00, 0.00, 0.00, 0.00
45, 0.00, 16917.23, 0.00, -3043.44, 0.00, 0.00, -6812.86, 0.00, 0.00, 0.00, 0.00
46, 0.00, 16870.67, 0.00, -3000.86, 0.00, 0.00, -7403.95, 0.00, -0.00, -0.01, 1.02
47, 0.00, 16851.61, 0.00, -2983.00, 0.00, 0.00, -7634.55, 0.00, 0.00, 0.00, 0.00
48, 0.00, 16888.84, 0.00, -3030.43, 0.00, 0.00, -7093.15, 0.00, 0.00, 0.00, 0.00
49, 0.00, 16912.71, 0.00, -3061.65, 0.00, 0.00, -6791.80, 0.00, 0.00, 0.00, 0.00
50, 0.00, 16878.83, 0.00, -3028.01, 0.00, 0.00, -7308.06, 0.00, 0.00, 0.00, 0.00
51, 0.00, 16847.72, 0.00, -3002.08, 0.00, 0.00, -7679.77, 0.00, -0.00, -0.01, 1.02
52, 0.00, 16877.98, 0.00, -3034.32, 0.00, 0.00, -7220.04, 0.00, 0.00, 0.00, 0.00
53, 0.00, 16912.65, 0.00, -3073.88, 0.00, 0.00, -6792.27, 0.00, 0.00, 0.00, 0.00
54, 0.00, 16893.18, 0.00, -3045.09, 0.00, 0.00, -7197.40, 0.00, 0.00, 0.00, 0.00
55, 0.00, 16853.91, 0.00, -3004.23, 0.00, 0.00, -7687.93, 0.00, 0.00, 0.00, 0.00
56, 0.00, 16872.53, 0.00, -3023.79, 0.00, 0.00, -7356.41, 0.00, -0.01, -0.01, 1.02
57, 0.00, 16907.89, 0.00, -3066.44, 0.00, 0.00, -6803.54, 0.00, 0.00, 0.00, 0.00
58, 0.00, 16896.55, 0.00, -3050.54, 0.00, 0.00, -7096.59, 0.00, 0.00, 0.00, 0.00
59, 0.00, 16853.44, 0.00, -3007.14, 0.00, 0.00, -7629.77, 0.00, 0.00, 0.00, 0.00
60, 0.00, 16861.02, 0.00, -3020.48, 0.00, 0.00, -7444.90, 0.00, 0.00, 0.00, 0.00
61, 0.00, 16903.57, 0.00, -3069.16, 0.00, 0.00, -6864.60, 0.00, 0.00, -0.01, 1.01
62, 0.00, 16899.91, 0.00, -3059.06, 0.00, 0.00, -6981.05, 0.00, 0.00, 0.00, 0.00
63, 0.00, 16854.87, 0.00, -3006.04, 0.00, 0.00, -7591.41, 0.00, 0.00, 0.00, 0.00
64, 0.00, 16856.93, 0.00, -2989.75, 0.00, 0.00, -7538.68, 0.00, 0.00, 0.00, 0.00
65, 0.00, 16892.53, 0.00, -3008.52, 0.00, 0.00, -6932.46, 0.00, 0.00, 0.00, 0.00
66, 0.00, 16897.92, 0.00, -2997.70, 0.00, 0.00, -6888.52, 0.00, -0.00, -0.01, 1.02
67, 0.00, 16864.03, 0.00, -2943.64, 0.00, 0.00, -7482.31, 0.00, 0.00, 0.00, 0.00
68, 0.00, 16854.96, 0.00, -2912.92, 0.00, 0.00, -7618.17, 0.00, 0.00, 0.00, 0.00
69, 0.00, 16894.59, 0.00, -2959.06, 0.00, 0.00, -7049.87, 0.00, 0.00, 0.00, 0.00
70, 0.00, 16914.35, 0.00, -3005.97, 0.00, 0.00, -6824.28, 0.00, 0.00, 0.00, 0.00
71, 0.00, 16876.37, 0.00, -2966.72, 0.00, 0.00, -7378.85, 0.00, 0.00, 0.00, 0.00
72, 0.00, 16853.24, 0.00, -2941.98, 0.00, 0.00, -7672.48, 0.00, -0.01, -0.00, 1.01
73, 0.00, 16873.98, 0.00, -3006.78, 0.00, 0.00, -7170.93, 0.00, 0.00, 0.00, 0.00
74, 0.00, 16897.76, 0.00, -3068.69, 0.00, 0.00, -6786.24, 0.00, 0.00, 0.00, 0.00
75, 0.00, 16872.79, 0.00, -3041.40, 0.00, 0.00, -7270.51, 0.00, 0.00, 0.00, 0.00
76, 0.00, 16842.46, 0.00, -3002.64, 0.00, 0.00, -7678.76, 0.00, 0.00, 0.00, 0.00
77, 0.00, 16872.01, 0.00, -3028.37, 0.00, 0.00, -7238.10, 0.00, -0.00, -0.01, 1.01
78, 0.00, 16911.98, 0.00, -3064.45, 0.00, 0.00, -6797.88, 0.00, 0.00, 0.00, 0.00
79, 0.00, 16893.47, 0.00, -3038.52, 0.00, 0.00, -7147.77, 0.00, 0.00, 0.00, 0.00
80, 0.00, 16857.04, 0.00, -2995.92, 0.00, 0.00, -7655.00, 0.00, 0.00, 0.00, 0.00
81, 0.00, 16872.33, 0.00, -3016.46, 0.00, 0.00, -7370.47, 0.00, 0.00, 0.00, 0.00
82, 0.00, 16906.03, 0.00, -3057.47, 0.00, 0.00, -6819.54, 0.00, 0.00, -0.00, 1.02
83, 0.00, 16894.25, 0.00, -3042.83, 0.00, 0.00, -7045.02, 0.00, 0.00, 0.00, 0.00
84, 0.00, 16859.94, 0.00, -3000.72, 0.00, 0.00, -7629.81, 0.00, 0.00, 0.00, 0.00
85, 0.00, 16876.33, 0.00, -3015.21, 0.00, 0.00, -7478.71, 0.00, 0.00, 0.00, 0.00
86, 0.00, 16910.23, 0.00, -3057.61, 0.00, 0.00, -6879.84, 0.00, 0.00, 0.00, 0.00
87, 0.00, 16908.38, 0.00, -3053.90, 0.00, 0.00, -6953.47, 0.00, -0.01, -0.01, 1.02
88, 0.00, 16869.69, 0.00, -3007.67, 0.00, 0.00, -7567.32, 0.00, 0.00, 0.00, 0.00
89, 0.00, 16865.71, 0.00, -3002.11, 0.00, 0.00, -7548.65, 0.00, 0.00, 0.00, 0.00
90, 0.00, 16903.97, 0.00, -3052.76, 0.00, 0.00, -6963.37, 0.00, 0.00, 0.00, 0.00
91, 0.00, 16909.61, 0.00, -3063.64, 0.00, 0.00, -6877.65, 0.00, 0.00, 0.00, 0.00
92, 0.00, 16871.54, 0.00, -3012.75, 0.00, 0.00, -7473.04, 0.00, -0.00, -0.01, 1.02
93, 0.00, 16858.00, 0.00, -2994.44, 0.00, 0.00, -7633.41, 0.00, 0.00, 0.00, 0.00
94, 0.00, 16894.99, 0.00, -3039.88, 0.00, 0.00, -7081.48, 0.00, 0.00, 0.00, 0.00
95, 0.00, 16913.41, 0.00, -3059.93, 0.00, 0.00, -6800.90, 0.00, 0.00, 0.00, 0.00
96, 0.00, 16881.91, 0.00, -3020.41, 0.00, 0.00, -7350.84, 0.00, 0.00, 0.00, 0.00
97, 0.00, 16856.86, 0.00, -2995.00, 0.00, 0.00, -7677.69, 0.00, -0.00, 0.00, 1.01
98, 0.00, 16886.88, 0.00, -3027.92, 0.00, 0.00, -7193.19, 0.00, 0.00, 0.00, 0.00
99, 0.00, 16920.11, 0.00, -3058.70, 0.00, 0.00, -6792.81, 0.00, 0.00, 0.00, 0.00
100, 0.00, 16892.98, 0.00, -3024.75, 0.00, 0.00, -7237.38, 0.00, 0.00, 0.00, 0.00
101, 0.00, 16863.63, 0.00, -2986.10, 0.00, 0.00, -7676.82, 0.00, 0.00, 0.00, 0.00
102, 0.00, 16885.54, 0.00, -3012.21, 0.00, 0.00, -7288.10, 0.00, -0.00, 0.00, 1.01
103, 0.00, 16923.27, 0.00, -3048.02, 0.00, 0.00, -6794.84, 0.00, 0.00, 0.00, 0.00
104, 0.00, 16902.68, 0.00, -3024.10, 0.00, 0.00, -7097.28, 0.00, 0.00, 0.00, 0.00
105, 0.00, 16867.10, 0.00, -2983.71, 0.00, 0.00, -7643.83, 0.00, 0.00, 0.00, 0.00
106, 0.00, 16877.24, 0.00, -2999.85, 0.00, 0.00, -7420.85, 0.00, 0.00, 0.00, 0.00
107, 0.00, 16913.21, 0.00, -3040.51, 0.00, 0.00, -6844.69, 0.00, 0.00, 0.00, 0.00
108, 0.00, 16905.36, 0.00, -3031.21, 0.00, 0.00, -6999.72, 0.00, -0.00, 0.00, 1.02
109, 0.00, 16864.10, 0.00, -2984.74, 0.00, 0.00, -7599.44, 0.00, 0.00, 0.00, 0.00
110, 0.00, 16866.29, 0.00, -2981.39, 0.00, 0.00, -7521.97, 0.00, 0.00, 0.00, 0.00
111, 0.00, 16908.45, 0.00, -3026.34, 0.00, 0.00, -6915.16, 0.00, 0.00, 0.00, 0.00
112, 0.00, 16916.31, 0.00, -3022.76, 0.00, 0.00, -6911.72, 0.00, 0.00, 0.00, 0.00
113, 0.00, 16877.44, 0.00, -2975.60, 0.00, 0.00, -7531.78, 0.00, -0.01, 0.00, 1.01
114, 0.00, 16864.64, 0.00, -2958.41, 0.00, 0.00, -7618.50, 0.00, 0.00, 0.00, 0.00
115, 0.00, 16909.38, 0.00, -2999.56, 0.00, 0.00, -7004.88, 0.00, 0.00, 0.00, 0.00
116, 0.00, 16924.14, 0.00, -3010.36, 0.00, 0.00, -6853.92, 0.00, 0.00, 0.00, 0.00
117, 0.00, 16881.04, 0.00, -2963.08, 0.00, 0.00, -7421.00, 0.00, 0.00, 0.00, 0.00
118, 0.00, 16868.15, 0.00, -2934.16, 0.00, 0.00, -7655.79, 0.00, -0.01, -0.00, 1.01
119, 0.00, 16905.43, 0.00, -2968.96, 0.00, 0.00, -7114.22, 0.00, 0.00, 0.00, 0.00
120, 0.00, 16928.90, 0.00, -2992.38, 0.00, 0.00, -6782.66, 0.00, 0.00, 0.00, 0.00
121, 0.00, 16899.79, 0.00, -2949.56, 0.00, 0.00, -7303.63, 0.00, 0.00, 0.00, 0.00
122, 0.00, 16876.84, 0.00, -2915.34, 0.00, 0.00, -7681.13, 0.00, 0.00, 0.00, 0.00
123, 0.00, 16909.74, 0.00, -2941.65, 0.00, 0.00, -7214.90, 0.00, -0.01, -0.00, 1.02
124, 0.00, 16934.51, 0.00, -2970.86, 0.00, 0.00, -6786.82, 0.00, 0.00, 0.00, 0.00
125, 0.00, 16906.43, 0.00, -2941.06, 0.00, 0.00, -7182.46, 0.00, 0.00, 0.00, 0.00
126, 0.00, 16872.57, 0.00, -2901.06, 0.00, 0.00, -7654.11, 0.00, 0.00, 0.00, 0.00
127, 0.00, 16888.11, 0.00, -2922.76, 0.00, 0.00, -7337.59, 0.00, 0.00, 0.00, 0.00
128, 0.00, 16932.45, 0.00, -2967.98, 0.00, 0.00, -6814.98, 0.00, -0.01, -0.00, 1.02
129, 0.00, 16916.49, 0.00, -2952.11, 0.00, 0.00, -7076.58, 0.00, 0.00, 0.00, 0.00
130, 0.00, 16874.07, 0.00, -2907.20, 0.00, 0.00, -7631.69, 0.00, 0.00, 0.00, 0.00
131, 0.00, 16882.83, 0.00, -2924.93, 0.00, 0.00, -7446.91, 0.00, 0.00, 0.00, 0.00
132, 0.00, 16920.07, 0.00, -2976.49, 0.00, 0.00, -6865.09, 0.00, 0.00, 0.00, 0.00
133, 0.00, 16916.11, 0.00, -2982.71, 0.00, 0.00, -6964.94, 0.00, -0.01, -0.01, 1.02
134, 0.00, 16875.21, 0.00, -2943.43, 0.00, 0.00, -7579.63, 0.00, 0.00, 0.00, 0.00
135, 0.00, 16873.22, 0.00, -2951.48, 0.00, 0.00, -7557.26, 0.00, 0.00, 0.00, 0.00
136, 0.00, 16914.55, 0.00, -3002.02, 0.00, 0.00, -6943.17, 0.00, 0.00, 0.00, 0.00
137, 0.00, 16922.62, 0.00, -3019.92, 0.00, 0.00, -6873.65, 0.00, 0.00, 0.00, 0.00
138, 0.00, 16887.84, 0.00, -2985.86, 0.00, 0.00, -7477.80, 0.00, 0.00, 0.00, 0.00
139, 0.00, 16870.67, 0.00, -2979.76, 0.00, 0.00, -7609.43, 0.00, -0.01, -0.01, 1.02
140, 0.00, 16903.53, 0.00, -3028.91, 0.00, 0.00, -7033.45, 0.00, 0.00, 0.00, 0.00
141, 0.00, 16920.58, 0.00, -3053.38, 0.00, 0.00, -6829.13, 0.00, 0.00, 0.00, 0.00
142, 0.00, 16879.99, 0.00, -3014.67, 0.00, 0.00, -7402.85, 0.00, 0.00, 0.00, 0.00
143, 0.00, 16857.06, 0.00, -2996.39, 0.00, 0.00, -7674.40, 0.00, 0.00, 0.00, 0.00
144, 0.00, 16896.38, 0.00, -3033.60, 0.00, 0.00, -7160.63, 0.00, -0.00, -0.01, 1.02
145, 0.00, 16927.11, 0.00, -3063.04, 0.00, 0.00, -6797.37, 0.00, 0.00, 0.00, 0.00
146, 0.00, 16894.52, 0.00, -3031.25, 0.00, 0.00, -7258.75, 0.00, 0.00, 0.00, 0.00
147, 0.00, 16860.50, 0.00, -2998.08, 0.00, 0.00, -7689.83, 0.00, 0.00, 0.00, 0.00
148, 0.00, 16884.08, 0.00, -3033.60, 0.00, 0.00, -7255.20, 0.00, 0.00, 0.00, 0.00
149, 0.00, 16916.16, 0.00, -3074.19, 0.00, 0.00, -6787.55, 0.00, -0.00, -0.01, 1.01
150, 0.00, 16900.89, 0.00, -3048.20, 0.00, 0.00, -7151.35, 0.00, 0.00, 0.00, 0.00
151, 0.00, 16863.21, 0.00, -3012.48, 0.00, 0.00, -7658.02, 0.00, 0.00, 0.00, 0.00
152, 0.00, 16878.09, 0.00, -3030.07, 0.00, 0.00, -7373.33, 0.00, 0.00, 0.00, 0.00
153, 0.00, 16918.59, 0.00, -3071.00, 0.00, 0.00, -6839.54, 0.00, 0.00, 0.00, 0.00
154, 0.00, 16914.88, 0.00, -3059.98, 0.00, 0.00, -7023.50, 0.00, -0.00, -0.00, 1.01
155, 0.00, 16872.68, 0.00, -3015.52, 0.00, 0.00, -7608.13, 0.00, 0.00, 0.00, 0.00
156, 0.00, 16873.60, 0.00, -3020.70, 0.00, 0.00, -7476.23, 0.00, 0.00, 0.00, 0.00
157, 0.00, 16913.16, 0.00, -3067.67, 0.00, 0.00, -6874.99, 0.00, 0.00, 0.00, 0.00
158, 0.00, 16908.74, 0.00, -3067.15, 0.00, 0.00, -6935.54, 0.00, 0.00, 0.00, 0.00
159, 0.00, 16866.58, 0.00, -3019.09, 0.00, 0.00, -7550.13, 0.00, -0.01, -0.00, 1.01
160, 0.00, 16858.56, 0.00, -3013.69, 0.00, 0.00, -7569.73, 0.00, 0.00, 0.00, 0.00
161, 0.00, 16898.34, 0.00, -3055.68, 0.00, 0.00, -6981.61, 0.00, 0.00, 0.00, 0.00
162, 0.00, 16902.50, 0.00, -3069.83, 0.00, 0.00, -6864.69, 0.00, 0.00, 0.00, 0.00
163, 0.00, 16862.87, 0.00, -3026.52, 0.00, 0.00, -7458.20, 0.00, 0.00, 0.00, 0.00
164, 0.00, 16850.76, 0.00, -3007.65, 0.00, 0.00, -7635.80, 0.00, -0.00, -0.00, 1.01
165, 0.00, 16888.29, 0.00, -3053.58, 0.00, 0.00, -7077.84, 0.00, 0.00, 0.00, 0.00
166, 0.00, 16910.90, 0.00, -3073.16, 0.00, 0.00, -6836.73, 0.00, 0.00, 0.00, 0.00
167, 0.00, 16880.69, 0.00, -3033.33, 0.00, 0.00, -7364.88, 0.00, 0.00, 0.00, 0.00
168, 0.00, 16851.58, 0.00, -3005.24, 0.00, 0.00, -7675.66, 0.00, 0.00, 0.00, 0.00
169, 0.00, 16877.89, 0.00, -3038.03, 0.00, 0.00, -7180.81, 0.00, -0.01, -0.00, 1.02
170, 0.00, 16908.04, 0.00, -3072.87, 0.00, 0.00, -6790.48, 0.00, 0.00, 0.00, 0.00
171, 0.00, 16881.47, 0.00, -3048.46, 0.00, 0.00, -7237.74, 0.00, 0.00, 0.00, 0.00
172, 0.00, 16845.48, 0.00, -3011.27, 0.00, 0.00, -7700.85, 0.00, 0.00, 0.00, 0.00
173, 0.00, 16864.64, 0.00, -3036.53, 0.00, 0.00, -7328.53, 0.00, 0.00, 0.00, 0.00
174, 0.00, 16905.72, 0.00, -3073.72, 0.00, 0.00, -6800.23, 0.00, 0.00, 0.00, 0.00
175, 0.00, 16889.42, 0.00, -3053.54, 0.00, 0.00, -7107.50, 0.00, -0.00, -0.01, 1.01
176, 0.00, 16852.57, 0.00, -3007.61, 0.00, 0.00, -7650.78, 0.00, 0.00, 0.00, 0.00
177, 0.00, 16861.46, 0.00, -3022.38, 0.00, 0.00, -7407.12, 0.00, 0.00, 0.00, 0.00
178, 0.00, 16899.66, 0.00, -3071.24, 0.00, 0.00, -6841.33, 0.00, 0.00, 0.00, 0.00
179, 0.00, 16898.03, 0.00, -3062.28, 0.00, 0.00, -7003.40, 0.00, 0.00, 0.00, 0.00
180, 0.00, 16850.69, 0.00, -3019.79, 0.00, 0.00, -7606.57, 0.00, -0.01, -0.01, 1.01
181, 0.00, 16855.61, 0.00, -3018.96, 0.00, 0.00, -7541.75, 0.00, 0.00, 0.00, 0.00
182, 0.00, 16899.77, 0.00, -3065.77, 0.00, 0.00, -6935.88, 0.00, 0.00, 0.00, 0.00
183, 0.00, 16905.27, 0.00, -3069.50, 0.00, 0.00, -6909.57, 0.00, 0.00, 0.00, 0.00
184, 0.00, 16864.90, 0.00, -3021.29, 0.00, 0.00, -7532.31, 0.00, 0.00, 0.00, 0.00
185, 0.00, 16852.99, 0.00, -3014.94, 0.00, 0.00, -7594.16, 0.00, -0.01, -0.01, 1.01
186, 0.00, 16896.82, 0.00, -3061.47, 0.00, 0.00, -7004.05, 0.00, 0.00, 0.00, 0.00
187, 0.00, 16910.39, 0.00, -3078.33, 0.00, 0.00, -6840.55, 0.00, 0.00, 0.00, 0.00
188, 0.00, 16873.76, 0.00, -3035.46, 0.00, 0.00, -7427.84, 0.00, 0.00, 0.00, 0.00
189, 0.00, 16858.20, 0.00, -3016.97, 0.00, 0.00, -7664.28, 0.00, 0.00, 0.00, 0.00
190, 0.00, 16889.47, 0.00, -3052.33, 0.00, 0.00, -7137.05, 0.00, -0.01, -0.01, 1.02
191, 0.00, 16910.73, 0.00, -3077.12, 0.00, 0.00, -6824.08, 0.00, 0.00, 0.00, 0.00
192, 0.00, 16878.14, 0.00, -3041.18, 0.00, 0.00, -7303.48, 0.00, 0.00, 0.00, 0.00
193, 0.00, 16846.49, 0.00, -3018.07, 0.00, 0.00, -7678.81, 0.00, 0.00, 0.00, 0.00
194, 0.00, 16881.69, 0.00, -3050.07, 0.00, 0.00, -7218.25, 0.00, 0.00, 0.00, 0.00
195, 0.00, 16916.38, 0.00, -3082.51, 0.00, 0.00, -6795.53, 0.00, -0.00, -0.00, 1.01
196, 0.00, 16887.10, 0.00, -3056.98, 0.00, 0.00, -7188.01, 0.00, 0.00, 0.00, 0.00
197, 0.00, 16852.86, 0.00, -3018.56, 0.00, 0.00, -7677.65, 0.00, 0.00, 0.00, 0.00
198, 0.00, 16875.59, 0.00, -3044.46, 0.00, 0.00, -7351.65, 0.00, 0.00, 0.00, 0.00
199, 0.00, 16915.53, 0.00, -3078.44, 0.00, 0.00, -6823.63, 0.00, 0.00, 0.00, 0.00
200, 0.00, 16903.66, 0.00, -3064.13, 0.00, 0.00, -7081.52, 0.00, -0.01, -0.01, 1.01
201, 0.00, 16866.25, 0.00, -3021.91, 0.00, 0.00, -7650.91, 0.00, 0.00, 0.00, 0.00
202, 0.00, 16873.69, 0.00, -3032.60, 0.00, 0.00, -7458.67, 0.00, 0.00, 0.00, 0.00
203, 0.00, 16909.07, 0.00, -3074.97, 0.00, 0.00, -6865.00, 0.00, 0.00, 0.00, 0.00
204, 0.00, 16895.59, 0.00, -3072.34, 0.00, 0.00, -6987.16, 0.00, 0.00, 0.00, 0.00
205, 0.00, 16855.36, 0.00, -3029.64, 0.00, 0.00, -7595.03, 0.00, -0.01, -0.00, 1.02
206, 0.00, 16858.00, 0.00, -3028.15, 0.00, 0.00, -7556.88, 0.00, 0.00, 0.00, 0.00
207, 0.00, 16895.10, 0.00, -3074.06, 0.00, 0.00, -6951.03, 0.00, 0.00, 0.00, 0.00
208, 0.00, 16905.00, 0.00, -3082.77, 0.00, 0.00, -6896.68, 0.00, 0.00, 0.00, 0.00
209, 0.00, 16870.43, 0.00, -3036.17, 0.00, 0.00, -7500.71, 0.00, 0.00, 0.00, 0.00
210, 0.00, 16857.37, 0.00, -3021.58, 0.00, 0.00, -7639.36, 0.00, 0.00, 0.00, 0.00
211, 0.00, 16891.19, 0.00, -3062.88, 0.00, 0.00, -7073.95, 0.00, 0.00, -0.00, 1.02
212, 0.00, 16906.46, 0.00, -3086.42, 0.00, 0.00, -6847.32, 0.00, 0.00, 0.00, 0.00
213, 0.00, 16870.72, 0.00, -3043.99, 0.00, 0.00, -7386.56, 0.00, 0.00, 0.00, 0.00
214, 0.00, 16849.33, 0.00, -3016.19, 0.00, 0.00, -7659.99, 0.00, 0.00, 0.00, 0.00
215, 0.00, 16879.12, 0.00, -3054.54, 0.00, 0.00, -7171.22, 0.00, 0.00, 0.00, 0.00
216, 0.00, 16904.51, 0.00, -3091.83, 0.00, 0.00, -6804.54, 0.00, 0.00, -0.01, 1.01
217, 0.00, 16879.54, 0.00, -3057.25, 0.00, 0.00, -7262.53, 0.00, 0.00, 0.00, 0.00
218, 0.00, 16845.91, 0.00, -3018.69, 0.00, 0.00, -7688.06, 0.00, 0.00, 0.00, 0.00
219, 0.00, 16866.16, 0.00, -3051.12, 0.00, 0.00, -7280.72, 0.00, 0.00, 0.00, 0.00
220, 0.00, 16899.66, 0.00, -3086.91, 0.00, 0.00, -6799.74, 0.00, 0.00, 0.00, 0.00
221, 0.00, 16876.82, 0.00, -3062.39, 0.00, 0.00, -7171.71, 0.00, -0.00, -0.01, 1.02
222, 0.00, 16840.54, 0.00, -3024.93, 0.00, 0.00, -7681.18, 0.00, 0.00, 0.00, 0.00
223, 0.00, 16859.85, 0.00, -3041.45, 0.00, 0.00, -7398.99, 0.00, 0.00, 0.00, 0.00
224, 0.00, 16897.92, 0.00, -3079.98, 0.00, 0.00, -6850.76, 0.00, 0.00, 0.00, 0.00
225, 0.00, 16887.95, 0.00, -3070.32, 0.00, 0.00, -7061.61, 0.00, 0.00, 0.00, 0.00
226, 0.00, 16856.66, 0.00, -3027.70, 0.00, 0.00, -7626.84, 0.00, 0.00, -0.01, 1.02
227, 0.00, 16863.23, 0.00, -3035.77, 0.00, 0.00, -7497.27, 0.00, 0.00, 0.00, 0.00
228, 0.00, 16906.17, 0.00, -3080.38, 0.00, 0.00, -6903.65, 0.00, 0.00, 0.00, 0.00
229, 0.00, 16904.58, 0.00, -3080.18, 0.00, 0.00, -6964.60, 0.00, 0.00, 0.00, 0.00
230, 0.00, 16860.57, 0.00, -3030.87, 0.00, 0.00, -7566.27, 0.00, 0.00, 0.00, 0.00
231, 0.00, 16851.90, 0.00, -3026.85, 0.00, 0.00, -7610.57, 0.00, -0.00, -0.01, 1.02
232, 0.00, 16890.77, 0.00, -3074.24, 0.00, 0.00, -7000.28, 0.00, 0.00, 0.00, 0.00
233, 0.00, 16902.63, 0.00, -3088.32, 0.00, 0.00, -6880.13, 0.00, 0.00, 0.00, 0.00
234, 0.00, 16865.31, 0.00, -3041.63, 0.00, 0.00, -7480.70, 0.00, 0.00, 0.00, 0.00
235, 0.00, 16841.90, 0.00, -3021.20, 0.00, 0.00, -7680.19, 0.00, 0.00, 0.00, 0.00
236, 0.00, 16877.42, 0.00, -3061.85, 0.00, 0.00, -7110.40, 0.00, -0.01, -0.00, 1.02
237, 0.00, 16901.81, 0.00, -3087.96, 0.00, 0.00, -6827.27, 0.00, 0.00, 0.00, 0.00
238, 0.00, 16868.28, 0.00, -3054.25, 0.00, 0.00, -7364.09, 0.00, 0.00, 0.00, 0.00
239, 0.00, 16838.04, 0.00, -3020.64, 0.00, 0.00, -7698.50, 0.00, 0.00, 0.00, 0.00
240, 0.00, 16867.77, 0.00, -3053.78, 0.00, 0.00, -7197.55, 0.00, 0.00, 0.00, 0.00
241, 0.00, 16903.62, 0.00, -3088.94, 0.00, 0.00, -6798.17, 0.00, 0.00, 0.00, 0.00
242, 0.00, 16883.61, 0.00, -3059.66, 0.00, 0.00, -7229.27, 0.00, -0.01, -0.00, 1.01
243, 0.00, 16847.87, 0.00, -3021.46, 0.00, 0.00, -7680.84, 0.00, 0.00, 0.00, 0.00
244, 0.00, 16864.73, 0.00, -3046.70, 0.00, 0.00, -7316.53, 0.00, 0.00, 0.00, 0.00
245, 0.00, 16899.33, 0.00, -3088.21, 0.00, 0.00, -6818.69, 0.00, 0.00, 0.00, 0.00
246, 0.00, 16878.00, 0.00, -3068.36, 0.00, 0.00, -7131.08, 0.00, 0.00, 0.00, 0.00
247, 0.00, 16840.52, 0.00, -3026.00, 0.00, 0.00, -7669.53, 0.00, -0.00, -0.00, 1.02
248, 0.00, 16848.81, 0.00, -3040.60, 0.00, 0.00, -7435.58, 0.00, 0.00, 0.00, 0.00
249, 0.00, 16888.55, 0.00, -3087.40, 0.00, 0.00, -6868.04, 0.00, 0.00, 0.00, 0.00
250, 0.00, 16881.42, 0.00, -3081.61, 0.00, 0.00, -7030.16, 0.00, 0.00, 0.00, 0.00
251, 0.00, 16838.78, 0.00, -3032.84, 0.00, 0.00, -7630.01, 0.00, 0.00, 0.00, 0.00
252, 0.00, 16843.96, 0.00, -3030.34, 0.00, 0.00, -7543.47, 0.00, -0.00, -0.01, 1.01
253, 0.00, 16885.69, 0.00, -3079.94, 0.00, 0.00, -6944.22, 0.00, 0.00, 0.00, 0.00
254, 0.00, 16887.73, 0.00, -3083.89, 0.00, 0.00, -6935.46, 0.00, 0.00, 0.00, 0.00
255, 0.00, 16844.01, 0.00, -3039.08, 0.00, 0.00, -7527.82, 0.00, 0.00, 0.00, 0.00
0, 0.00, 16832.85, 0.00, -3030.83, 0.00, 0.00, -7623.67, 0.00, 0.00, 0.00, 0.00
1, 0.00, 16870.76, 0.00, -3072.94, 0.00, 0.00, -7032.35, 0.00, -0.01, -0.01, 1.02
2, 0.00, 16883.95, 0.00, -3090.31, 0.00, 0.00, -6871.24, 0.00, 0.00, 0.00, 0.00
3, 0.00, 16840.05, 0.00, -3038.29, 0.00, 0.00, -7433.99, 0.00, 0.00, 0.00, 0.00
4, 0.00, 16818.26, 0.00, -3017.22, 0.00, 0.00, -7662.00, 0.00, 0.00, 0.00, 0.00
5, 0.00, 16858.65, 0.00, -3061.56, 0.00, 0.00, -7123.12, 0.00, 0.00, 0.00, 0.00
6, 0.00, 16882.76, 0.00, -3087.49, 0.00, 0.00, -6813.46, 0.00, -0.01, -0.00, 1.01
7, 0.00, 16853.53, 0.00, -3046.30, 0.00, 0.00, -7333.70, 0.00, 0.00, 0.00, 0.00
8, 0.00, 16834.69, 0.00, -3015.16, 0.00, 0.00, -7693.98, 0.00, 0.00, 0.00, 0.00
9, 0.00, 16861.06, 0.00, -3045.51, 0.00, 0.00, -7223.06, 0.00, 0.00, 0.00, 0.00
10, 0.00, 16889.83, 0.00, -3078.44, 0.00, 0.00, -6810.22, 0.00, 0.00, 0.00, 0.00
11, 0.00, 16863.18, 0.00, -3049.67, 0.00, 0.00, -7231.33, 0.00, -0.00, -0.00, 1.01
12, 0.00, 16828.52, 0.00, -3008.79, 0.00, 0.00, -7683.14, 0.00, 0.00, 0.00, 0.00
13, 0.00, 16845.08, 0.00, -3032.39, 0.00, 0.00, -7343.24, 0.00, 0.00, 0.00, 0.00
14, 0.00, 16881.96, 0.00, -3076.05, 0.00, 0.00, -6837.76, 0.00, 0.00, 0.00, 0.00
15, 0.00, 16863.56, 0.00, -3060.40, 0.00, 0.00, -7102.96, 0.00, 0.00, 0.00, 0.00
16, 0.00, 16825.72, 0.00, -3019.12, 0.00, 0.00, -7658.24, 0.00, -0.00, 0.00, 1.02
17, 0.00, 16829.83, 0.00, -3036.51, 0.00, 0.00, -7467.83, 0.00, 0.00, 0.00, 0.00
18, 0.00, 16862.76, 0.00, -3085.12, 0.00, 0.00, -6879.31, 0.00, 0.00, 0.00, 0.00
19, 0.00, 16852.97, 0.00, -3082.19, 0.00, 0.00, -6989.12, 0.00, 0.00, 0.00, 0.00
20, 0.00, 16802.28, 0.00, -3042.01, 0.00, 0.00, -7593.49, 0.00, 0.00, 0.00, 0.00
21, 0.00, 16790.34, 0.00, -3045.40, 0.00, 0.00, -7567.76, 0.00, 0.00, 0.00, 0.00
22, 0.00, 16818.03, 0.00, -3092.05, 0.00, 0.00, -6977.79, 0.00, -0.00, -0.00, 1.02
23, 0.00, 16813.18, 0.00, -3095.56, 0.00, 0.00, -6904.48, 0.00, 0.00, 0.00, 0.00
24, 0.00, 16761.15, 0.00, -3045.67, 0.00, 0.00, -7517.70, 0.00, 0.00, 0.00, 0.00
25, 0.00, 16734.84, 0.00, -3034.56, 0.00, 0.00, -7666.58, 0.00, 0.00, 0.00, 0.00
26, 0.00, 16770.92, 0.00, -3082.24, 0.00, 0.00, -7106.85, 0.00, 0.00, 0.00, 0.00
27, 0.00, 16790.81, 0.00, -3099.83, 0.00, 0.00, -6817.10, 0.00, -0.00, -0.00, 1.02
28, 0.00, 16751.27, 0.00, -3058.10, 0.00, 0.00, -7370.20, 0.00, 0.00, 0.00, 0.00
29, 0.00, 16722.57, 0.00, -3034.81, 0.00, 0.00, -7658.13, 0.00, 0.00, 0.00, 0.00
30, 0.00, 16756.95, 0.00, -3073.59, 0.00, 0.00, -7142.52, 0.00, 0.00, 0.00, 0.00
31, 0.00, 16788.19, 0.00, -3098.82, 0.00, 0.00, -6788.87, 0.00, 0.00, 0.00, 0.00
32, 0.00, 16756.79, 0.00, -3054.16, 0.00, 0.00, -7282.31, 0.00, -0.01, -0.01, 1.01
33, 0.00, 16733.52, 0.00, -3002.24, 0.00, 0.00, -7693.16, 0.00, 0.00, 0.00, 0.00
34, 0.00, 16757.97, 0.00, -3004.81, 0.00, 0.00, -7263.69, 0.00, 0.00, 0.00, 0.00
35, 0.00, 16801.67, 0.00, -3032.10, 0.00, 0.00, -6797.25, 0.00, 0.00, 0.00, 0.00
36, 0.00, 16786.67, 0.00, -2992.34, 0.00, 0.00, -7161.95, 0.00, 0.00, 0.00, 0.00
37, 0.00, 16740.34, 0.00, -2935.90, 0.00, 0.00, -7691.28, 0.00, 0.00, -0.00, 1.02
38, 0.00, 16766.42, 0.00, -2978.75, 0.00, 0.00, -7413.49, 0.00, 0.00, 0.00, 0.00
39, 0.00, 16808.04, 0.00, -3035.57, 0.00, 0.00, -6856.31, 0.00, 0.00, 0.00, 0.00
40, 0.00, 16797.22, 0.00, -3017.80, 0.00, 0.00, -7065.32, 0.00, 0.00, 0.00, 0.00
41, 0.00, 16763.25, 0.00, -2986.73, 0.00, 0.00, -7648.25, 0.00, 0.00, 0.00, 0.00
42, 0.00, 16768.81, 0.00, -3029.29, 0.00, 0.00, -7501.07, 0.00, -0.00, -0.00, 1.02
43, 0.00, 16806.37, 0.00, -3101.80, 0.00, 0.00, -6903.27, 0.00, 0.00, 0.00, 0.00
44, 0.00, 16808.29, 0.00, -3095.49, 0.00, 0.00, -6951.06, 0.00, 0.00, 0.00, 0.00
45, 0.00, 16772.21, 0.00, -3041.25, 0.00, 0.00, -7553.70, 0.00, 0.00, 0.00, 0.00
46, 0.00, 16767.09, 0.00, -3032.91, 0.00, 0.00, -7596.71, 0.00, 0.00, 0.00, 0.00
47, 0.00, 16807.30, 0.00, -3081.81, 0.00, 0.00, -7008.95, 0.00, 0.01, -0.01, 1.01
48, 0.00, 16824.85, 0.00, -3090.06, 0.00, 0.00, -6868.60, 0.00, 0.00, 0.00, 0.00
49, 0.00, 16794.61, 0.00, -3043.23, 0.00, 0.00, -7448.85, 0.00, 0.00, 0.00, 0.00
50, 0.00, 16781.31, 0.00, -3028.30, 0.00, 0.00, -7657.35, 0.00, 0.00, 0.00, 0.00
51, 0.00, 16816.80, 0.00, -3069.39, 0.00, 0.00, -7110.09, 0.00, 0.00, 0.00, 0.00
52, 0.00, 16846.17, 0.00, -3095.69, 0.00, 0.00, -6827.00, 0.00, -0.00, -0.00, 1.01
53, 0.00, 16810.84, 0.00, -3054.37, 0.00, 0.00, -7348.54, 0.00, 0.00, 0.00, 0.00
54, 0.00, 16783.28, 0.00, -3024.91, 0.00, 0.00, -7662.31, 0.00, 0.00, 0.00, 0.00
55, 0.00, 16816.74, 0.00, -3060.09, 0.00, 0.00, -7187.34, 0.00, 0.00, 0.00, 0.00
56, 0.00, 16847.31, 0.00, -3096.03, 0.00, 0.00, -6794.75, 0.00, 0.00, 0.00, 0.00
57, 0.00, 16821.36, 0.00, -3065.36, 0.00, 0.00, -7240.00, 0.00, 0.00, 0.00, 0.00
58, 0.00, 16782.56, 0.00, -3023.57, 0.00, 0.00, -7698.03, 0.00, -0.01, -0.00, 1.01
59, 0.00, 16810.81, 0.00, -3048.33, 0.00, 0.00, -7333.52, 0.00, 0.00, 0.00, 0.00
60, 0.00, 16846.71, 0.00, -3092.52, 0.00, 0.00, -6823.50, 0.00, 0.00, 0.00, 0.00
61, 0.00, 16829.50, 0.00, -3072.47, 0.00, 0.00, -7130.61, 0.00, 0.00, 0.00, 0.00
62, 0.00, 16793.58, 0.00, -3026.00, 0.00, 0.00, -7673.20, 0.00, 0.00, 0.00, 0.00
63, 0.00, 16811.66, 0.00, -3040.98, 0.00, 0.00, -7433.56, 0.00, 0.00, -0.01, 1.01
64, 0.00, 16853.53, 0.00, -3085.28, 0.00, 0.00, -6861.96, 0.00, 0.00, 0.00, 0.00
65, 0.00, 16848.68, 0.00, -3076.20, 0.00, 0.00, -7024.06, 0.00, 0.00, 0.00, 0.00
66, 0.00, 16812.33, 0.00, -3031.90, 0.00, 0.00, -7623.42, 0.00, 0.00, 0.00, 0.00
67, 0.00, 16819.60, 0.00, -3035.97, 0.00, 0.00, -7547.76, 0.00, 0.00, 0.00, 0.00
68, 0.00, 16858.54, 0.00, -3076.67, 0.00, 0.00, -6925.67, 0.00, 0.00, -0.01, 1.00
69, 0.00, 16854.73, 0.00, -3074.42, 0.00, 0.00, -6933.80, 0.00, 0.00, 0.00, 0.00
70, 0.00, 16808.13, 0.00, -3027.50, 0.00, 0.00, -7561.86, 0.00, 0.00, 0.00, 0.00
71, 0.00, 16799.79, 0.00, -3019.41, 0.00, 0.00, -7629.25, 0.00, 0.00, 0.00, 0.00
72, 0.00, 16849.50, 0.00, -3064.87, 0.00, 0.00, -7048.98, 0.00, 0.00, 0.00, 0.00
73, 0.00, 16871.01, 0.00, -3076.99, 0.00, 0.00, -6885.28, 0.00, 0.00, -0.00, 1.01
74, 0.00, 16827.42, 0.00, -3031.77, 0.00, 0.00, -7431.95, 0.00, 0.00, 0.00, 0.00
75, 0.00, 16810.79, 0.00, -3008.75, 0.00, 0.00, -7674.63, 0.00, 0.00, 0.00, 0.00
76, 0.00, 16847.87, 0.00, -3047.91, 0.00, 0.00, -7137.02, 0.00, 0.00, 0.00, 0.00
77, 0.00, 16874.52, 0.00, -3069.50, 0.00, 0.00, -6822.38, 0.00, 0.00, 0.00, 0.00
78, 0.00, 16838.13, 0.00, -3029.40, 0.00, 0.00, -7314.99, 0.00, -0.00, -0.00, 1.00
79, 0.00, 16810.05, 0.00, -2993.10, 0.00, 0.00, -7668.46, 0.00, 0.00, 0.00, 0.00
80, 0.00, 16839.45, 0.00, -3019.88, 0.00, 0.00, -7239.26, 0.00, 0.00, 0.00, 0.00
81, 0.00, 16872.39, 0.00, -3059.75, 0.00, 0.00, -6814.31, 0.00, 0.00, 0.00, 0.00
82, 0.00, 16849.13, 0.00, -3029.67, 0.00, 0.00, -7210.92, 0.00, 0.00, 0.00, 0.00
83, 0.00, 16815.20, 0.00, -2979.96, 0.00, 0.00, -7706.23, 0.00, 0.00, -0.00, 1.01
84, 0.00, 16828.22, 0.00, -2993.95, 0.00, 0.00, -7366.75, 0.00, 0.00, 0.00, 0.00
85, 0.00, 16870.36, 0.00, -3031.81, 0.00, 0.00, -6821.64, 0.00, 0.00, 0.00, 0.00
86, 0.00, 16856.68, 0.00, -3010.13, 0.00, 0.00, -7093.19, 0.00, 0.00, 0.00, 0.00
87, 0.00, 16812.09, 0.00, -2963.17, 0.00, 0.00, -7656.97, 0.00, 0.00, 0.00, 0.00
88, 0.00, 16823.06, 0.00, -2969.07, 0.00, 0.00, -7470.29, 0.00, 0.00, 0.00, 0.00
89, 0.00, 16866.74, 0.00, -3010.31, 0.00, 0.00, -6886.95, 0.00, 0.00, -0.00, 1.02
90, 0.00, 16860.66, 0.00, -3001.88, 0.00, 0.00, -7007.72, 0.00, 0.00, 0.00, 0.00
91, 0.00, 16825.41, 0.00, -2950.74, 0.00, 0.00, -7604.24, 0.00, 0.00, 0.00, 0.00
92, 0.00, 16830.57, 0.00, -2946.68, 0.00, 0.00, -7574.49, 0.00, 0.00, 0.00, 0.00
93, 0.00, 16863.63, 0.00, -2986.51, 0.00, 0.00, -6972.00, 0.00, 0.00, 0.00, 0.00
94, 0.00, 16876.79, 0.00, -2992.16, 0.00, 0.00, -6907.38, 0.00, -0.00, -0.01, 1.02
95, 0.00, 16847.20, 0.00, -2942.47, 0.00, 0.00, -7496.28, 0.00, 0.00, 0.00, 0.00
96, 0.00, 16832.18, 0.00, -2925.26, 0.00, 0.00, -7644.10, 0.00, 0.00, 0.00, 0.00
97, 0.00, 16864.75, 0.00, -2971.37, 0.00, 0.00, -7060.80, 0.00, 0.00, 0.00, 0.00
98, 0.00, 16878.52, 0.00, -2994.84, 0.00, 0.00, -6854.30, 0.00, 0.00, 0.00, 0.00
99, 0.00, 16829.03, 0.00, -2958.61, 0.00, 0.00, -7405.31, 0.00, -0.01, -0.01, 1.02
100, 0.00, 16809.38, 0.00, -2939.84, 0.00, 0.00, -7708.38, 0.00, 0.00, 0.00, 0.00
101, 0.00, 16848.90, 0.00, -2980.29, 0.00, 0.00, -7185.39, 0.00, 0.00, 0.00, 0.00
102, 0.00, 16873.35, 0.00, -3020.41, 0.00, 0.00, -6802.51, 0.00, 0.00, 0.00, 0.00
103, 0.00, 16852.39, 0.00, -2999.02, 0.00, 0.00, -7273.77, 0.00, 0.00, 0.00, 0.00
104, 0.00, 16820.76, 0.00, -2971.82, 0.00, 0.00, -7703.46, 0.00, -0.01, -0.00, 1.02
105, 0.00, 16840.65, 0.00, -3009.53, 0.00, 0.00, -7302.20, 0.00, 0.00, 0.00, 0.00
106, 0.00, 16877.09, 0.00, -3057.16, 0.00, 0.00, -6823.99, 0.00, 0.00, 0.00, 0.00
107, 0.00, 16856.86, 0.00, -3038.94, 0.00, 0.00, -7156.27, 0.00, 0.00, 0.00, 0.00
108, 0.00, 16818.55, 0.00, -3006.06, 0.00, 0.00, -7689.22, 0.00, 0.00, 0.00, 0.00
109, 0.00, 16837.66, 0.00, -3031.99, 0.00, 0.00, -7405.45, 0.00, -0.01, -0.00, 1.02
110, 0.00, 16874.36, 0.00, -3077.08, 0.00, 0.00, -6855.19, 0.00, 0.00, 0.00, 0.00
111, 0.00, 16864.79, 0.00, -3068.83, 0.00, 0.00, -7048.73, 0.00, 0.00, 0.00, 0.00
112, 0.00, 16827.94, 0.00, -3030.83, 0.00, 0.00, -7628.18, 0.00, 0.00, 0.00, 0.00
113, 0.00, 16833.25, 0.00, -3037.20, 0.00, 0.00, -7507.15, 0.00, 0.00, 0.00, 0.00
114, 0.00, 16874.22, 0.00, -3085.70, 0.00, 0.00, -6899.20, 0.00, -0.01, -0.01, 1.02
115, 0.00, 16872.95, 0.00, -3083.53, 0.00, 0.00, -6944.89, 0.00, 0.00, 0.00, 0.00
116, 0.00, 16828.99, 0.00, -3044.17, 0.00, 0.00, -7560.52, 0.00, 0.00, 0.00, 0.00
117, 0.00, 16819.35, 0.00, -3038.94, 0.00, 0.00, -7593.80, 0.00, 0.00, 0.00, 0.00
118, 0.00, 16862.13, 0.00, -3083.07, 0.00, 0.00, -6998.20, 0.00, 0.00, 0.00, 0.00
119, 0.00, 16873.11, 0.00, -3097.48, 0.00, 0.00, -6889.50, 0.00, -0.01, -0.00, 1.02
120, 0.00, 16837.75, 0.00, -3054.77, 0.00, 0.00, -7476.64, 0.00, 0.00, 0.00, 0.00
121, 0.00, 16824.69, 0.00, -3035.57, 0.00, 0.00, -7647.05, 0.00, 0.00, 0.00, 0.00
122, 0.00, 16861.33, 0.00, -3080.67, 0.00, 0.00, -7087.42, 0.00, 0.00, 0.00, 0.00
123, 0.00, 16875.83, 0.00, -3101.91, 0.00, 0.00, -6849.11, 0.00, 0.00, 0.00, 0.00
124, 0.00, 16846.55, 0.00, -3062.35, 0.00, 0.00, -7370.91, 0.00, 0.00, 0.00, 0.00
125, 0.00, 16822.32, 0.00, -3036.31, 0.00, 0.00, -7687.17, 0.00, -0.02, -0.01, 1.02
126, 0.00, 16848.16, 0.00, -3070.39, 0.00, 0.00, -7222.23, 0.00, 0.00, 0.00, 0.00
127, 0.00, 16876.08, 0.00, -3099.65, 0.00, 0.00, -6817.37, 0.00, 0.00, 0.00, 0.00
128, 0.00, 16854.60, 0.00, -3071.84, 0.00, 0.00, -7248.58, 0.00, 0.00, 0.00, 0.00
129, 0.00, 16816.54, 0.00, -3035.12, 0.00, 0.00, -7696.24, 0.00, 0.00, 0.00, 0.00
130, 0.00, 16840.41, 0.00, -3062.12, 0.00, 0.00, -7355.11, 0.00, -0.01, -0.01, 1.02
131, 0.00, 16873.38, 0.00, -3106.22, 0.00, 0.00, -6838.14, 0.00, 0.00, 0.00, 0.00
132, 0.00, 16856.03, 0.00, -3083.09, 0.00, 0.00, -7121.51, 0.00, 0.00, 0.00, 0.00
133, 0.00, 16816.02, 0.00, -3039.26, 0.00, 0.00, -7658.71, 0.00, 0.00, 0.00, 0.00
134, 0.00, 16827.64, 0.00, -3049.92, 0.00, 0.00, -7437.56, 0.00, 0.00, 0.00, 0.00
135, 0.00, 16872.91, 0.00, -3097.26, 0.00, 0.00, -6881.61, 0.00, -0.01, -0.00, 1.02
136, 0.00, 16873.24, 0.00, -3091.09, 0.00, 0.00, -6998.20, 0.00, 0.00, 0.00, 0.00
137, 0.00, 16834.39, 0.00, -3044.87, 0.00, 0.00, -7586.58, 0.00, 0.00, 0.00, 0.00
138, 0.00, 16829.19, 0.00, -3047.84, 0.00, 0.00, -7527.78, 0.00, 0.00, 0.00, 0.00
139, 0.00, 16867.43, 0.00, -3092.97, 0.00, 0.00, -6932.21, 0.00, 0.00, 0.00, 0.00
140, 0.00, 16868.62, 0.00, -3095.92, 0.00, 0.00, -6941.65, 0.00, -0.01, -0.00, 1.02
141, 0.00, 16824.11, 0.00, -3048.31, 0.00, 0.00, -7550.58, 0.00, 0.00, 0.00, 0.00
142, 0.00, 16819.38, 0.00, -3039.32, 0.00, 0.00, -7613.05, 0.00, 0.00, 0.00, 0.00
143, 0.00, 16862.45, 0.00, -3083.49, 0.00, 0.00, -7018.13, 0.00, 0.00, 0.00, 0.00
144, 0.00, 16874.43, 0.00, -3098.89, 0.00, 0.00, -6867.39, 0.00, 0.00, 0.00, 0.00
145, 0.00, 16838.15, 0.00, -3060.04, 0.00, 0.00, -7432.04, 0.00, -0.01, -0.00, 1.02
146, 0.00, 16816.76, 0.00, -3040.73, 0.00, 0.00, -7676.06, 0.00, 0.00, 0.00, 0.00
147, 0.00, 16845.97, 0.00, -3074.06, 0.00, 0.00, -7161.07, 0.00, 0.00, 0.00, 0.00
148, 0.00, 16870.96, 0.00, -3103.18, 0.00, 0.00, -6841.87, 0.00, 0.00, 0.00, 0.00
149, 0.00, 16843.69, 0.00, -3071.89, 0.00, 0.00, -7323.71, 0.00, 0.00, 0.00, 0.00
150, 0.00, 16817.94, 0.00, -3036.93, 0.00, 0.00, -7693.49, 0.00, -0.01, -0.01, 1.02
151, 0.00, 16846.33, 0.00, -3072.07, 0.00, 0.00, -7256.74, 0.00, 0.00, 0.00, 0.00
152, 0.00, 16875.48, 0.00, -3110.49, 0.00, 0.00, -6826.16, 0.00, 0.00, 0.00, 0.00
153, 0.00, 16845.97, 0.00, -3080.45, 0.00, 0.00, -7223.68, 0.00, 0.00, 0.00, 0.00
154, 0.00, 16815.78, 0.00, -3040.69, 0.00, 0.00, -7696.58, 0.00, 0.00, 0.00, 0.00
155, 0.00, 16840.63, 0.00, -3064.51, 0.00, 0.00, -7365.06, 0.00, -0.01, -0.00, 1.02
156, 0.00, 16877.24, 0.00, -3109.02, 0.00, 0.00, -6812.30, 0.00, 0.00, 0.00, 0.00
157, 0.00, 16862.18, 0.00, -3088.09, 0.00, 0.00, -7091.05, 0.00, 0.00, 0.00, 0.00
158, 0.00, 16817.97, 0.00, -3045.22, 0.00, 0.00, -7665.62, 0.00, 0.00, 0.00, 0.00
159, 0.00, 16830.95, 0.00, -3057.47, 0.00, 0.00, -7470.33, 0.00, 0.00, 0.00, 0.00
160, 0.00, 16869.55, 0.00, -3102.44, 0.00, 0.00, -6885.30, 0.00, 0.00, 0.00, 0.00
161, 0.00, 16869.55, 0.00, -3096.50, 0.00, 0.00, -6992.39, 0.00, -0.00, -0.01, 1.02
162, 0.00, 16827.60, 0.00, -3050.59, 0.00, 0.00, -7580.77, 0.00, 0.00, 0.00, 0.00
163, 0.00, 16818.53, 0.00, -3050.90, 0.00, 0.00, -7568.73, 0.00, 0.00, 0.00, 0.00
164, 0.00, 16862.47, 0.00, -3094.80, 0.00, 0.00, -6965.41, 0.00, 0.00, 0.00, 0.00
165, 0.00, 16871.12, 0.00, -3103.54, 0.00, 0.00, -6899.78, 0.00, 0.00, 0.00, 0.00
166, 0.00, 16831.64, 0.00, -3065.77, 0.00, 0.00, -7497.89, 0.00, 0.00, -0.01, 1.02
167, 0.00, 16824.00, 0.00, -3048.46, 0.00, 0.00, -7632.94, 0.00, 0.00, 0.00, 0.00
168, 0.00, 16853.06, 0.00, -3089.39, 0.00, 0.00, -7073.57, 0.00, 0.00, 0.00, 0.00
169, 0.00, 16868.77, 0.00, -3107.79, 0.00, 0.00, -6841.89, 0.00, 0.00, 0.00, 0.00
170, 0.00, 16837.48, 0.00, -3066.06, 0.00, 0.00, -7398.38, 0.00, 0.00, 0.00, 0.00
171, 0.00, 16817.01, 0.00, -3043.46, 0.00, 0.00, -7670.16, 0.00, -0.00, -0.00, 1.01
172, 0.00, 16854.58, 0.00, -3080.18, 0.00, 0.00, -7163.89, 0.00, 0.00, 0.00, 0.00
173, 0.00, 16881.60, 0.00, -3111.94, 0.00, 0.00, -6814.49, 0.00, 0.00, 0.00, 0.00
174, 0.00, 16843.51, 0.00, -3079.65, 0.00, 0.00, -7290.78, 0.00, 0.00, 0.00, 0.00
175, 0.00, 16813.72, 0.00, -3045.36, 0.00, 0.00, -7700.00, 0.00, 0.00, 0.00, 0.00
176, 0.00, 16840.05, 0.00, -3077.10, 0.00, 0.00, -7279.94, 0.00, -0.01, -0.00, 1.01
177, 0.00, 16873.13, 0.00, -3115.59, 0.00, 0.00, -6812.19, 0.00, 0.00, 0.00, 0.00
178, 0.00, 16855.49, 0.00, -3093.53, 0.00, 0.00, -7174.17, 0.00, 0.00, 0.00, 0.00
179, 0.00, 16821.47, 0.00, -3050.36, 0.00, 0.00, -7697.78, 0.00, 0.00, 0.00, 0.00
180, 0.00, 16836.14, 0.00, -3070.32, 0.00, 0.00, -7442.95, 0.00, 0.00, 0.00, 0.00
181, 0.00, 16878.83, 0.00, -3111.99, 0.00, 0.00, -6864.27, 0.00, -0.00, -0.00, 1.02
182, 0.00, 16871.57, 0.00, -3100.83, 0.00, 0.00, -7036.06, 0.00, 0.00, 0.00, 0.00
183, 0.00, 16827.60, 0.00, -3055.28, 0.00, 0.00, -7615.51, 0.00, 0.00, 0.00, 0.00
184, 0.00, 16837.59, 0.00, -3059.84, 0.00, 0.00, -7492.28, 0.00, 0.00, 0.00, 0.00
185, 0.00, 16874.00, 0.00, -3108.48, 0.00, 0.00, -6898.35, 0.00, 0.00, 0.00, 0.00
186, 0.00, 16875.48, 0.00, -3111.18, 0.00, 0.00, -6943.48, 0.00, -0.00, 0.00, 1.01
187, 0.00, 16833.34, 0.00, -3061.07, 0.00, 0.00, -7557.10, 0.00, 0.00, 0.00, 0.00
188, 0.00, 16827.31, 0.00, -3055.82, 0.00, 0.00, -7587.52, 0.00, 0.00, 0.00, 0.00
189, 0.00, 16872.50, 0.00, -3103.11, 0.00, 0.00, -6991.49, 0.00, 0.00, 0.00, 0.00
190, 0.00, 16882.99, 0.00, -3112.26, 0.00, 0.00, -6878.68, 0.00, 0.00, 0.00, 0.00
191, 0.00, 16841.12, 0.00, -3066.50, 0.00, 0.00, -7471.72, 0.00, 0.00, 0.00, 0.00
192, 0.00, 16826.91, 0.00, -3044.73, 0.00, 0.00, -7635.94, 0.00, 0.00, -0.01, 1.02
193, 0.00, 16867.86, 0.00, -3089.10, 0.00, 0.00, -7078.13, 0.00, 0.00, 0.00, 0.00
194, 0.00, 16884.19, 0.00, -3118.67, 0.00, 0.00, -6835.50, 0.00, 0.00, 0.00, 0.00
195, 0.00, 16847.76, 0.00, -3080.18, 0.00, 0.00, -7358.02, 0.00, 0.00, 0.00, 0.00
196, 0.00, 16819.51, 0.00, -3048.78, 0.00, 0.00, -7683.93, 0.00, 0.00, 0.00, 0.00
197, 0.00, 16851.94, 0.00, -3082.17, 0.00, 0.00, -7209.40, 0.00, -0.00, -0.01, 1.01
198, 0.00, 16884.17, 0.00, -3116.03, 0.00, 0.00, -6815.07, 0.00, 0.00, 0.00, 0.00
199, 0.00, 16852.21, 0.00, -3085.39, 0.00, 0.00, -7246.84, 0.00, 0.00, 0.00, 0.00
200, 0.00, 16820.27, 0.00, -3051.21, 0.00, 0.00, -7690.05, 0.00, 0.00, 0.00, 0.00
201, 0.00, 16842.46, 0.00, -3077.63, 0.00, 0.00, -7322.03, 0.00, 0.00, 0.00, 0.00
202, 0.00, 16874.54, 0.00, -3116.70, 0.00, 0.00, -6820.75, 0.00, -0.01, -0.01, 1.01
203, 0.00, 16858.58, 0.00, -3098.38, 0.00, 0.00, -7146.21, 0.00, 0.00, 0.00, 0.00
204, 0.00, 16820.76, 0.00, -3055.35, 0.00, 0.00, -7708.24, 0.00, 0.00, 0.00, 0.00
205, 0.00, 16831.78, 0.00, -3067.53, 0.00, 0.00, -7423.57, 0.00, 0.00, 0.00, 0.00
206, 0.00, 16874.78, 0.00, -3109.55, 0.00, 0.00, -6844.60, 0.00, 0.00, 0.00, 0.00
207, 0.00, 16873.62, 0.00, -3103.29, 0.00, 0.00, -7025.09, 0.00, -0.00, -0.01, 1.02
208, 0.00, 16833.41, 0.00, -3059.53, 0.00, 0.00, -7619.98, 0.00, 0.00, 0.00, 0.00
209, 0.00, 16835.71, 0.00, -3064.11, 0.00, 0.00, -7510.57, 0.00, 0.00, 0.00, 0.00
210, 0.00, 16876.71, 0.00, -3106.27, 0.00, 0.00, -6919.72, 0.00, 0.00, 0.00, 0.00
211, 0.00, 16876.62, 0.00, -3110.11, 0.00, 0.00, -6936.66, 0.00, 0.00, 0.00, 0.00
212, 0.00, 16832.72, 0.00, -3066.28, 0.00, 0.00, -7529.16, 0.00, -0.00, -0.01, 1.01
213, 0.00, 16826.97, 0.00, -3055.08, 0.00, 0.00, -7608.02, 0.00, 0.00, 0.00, 0.00
214, 0.00, 16866.40, 0.00, -3094.67, 0.00, 0.00, -7025.42, 0.00, 0.00, 0.00, 0.00
215, 0.00, 16881.91, 0.00, -3111.52, 0.00, 0.00, -6870.12, 0.00, 0.00, 0.00, 0.00
216, 0.00, 16845.64, 0.00, -3073.41, 0.00, 0.00, -7453.39, 0.00, 0.00, 0.00, 0.00
217, 0.00, 16831.24, 0.00, -3056.62, 0.00, 0.00, -7668.03, 0.00, -0.01, -0.00, 1.01
218, 0.00, 16867.52, 0.00, -3094.29, 0.00, 0.00, -7114.96, 0.00, 0.00, 0.00, 0.00
219, 0.00, 16896.78, 0.00, -3120.73, 0.00, 0.00, -6805.46, 0.00, 0.00, 0.00, 0.00
220, 0.00, 16863.77, 0.00, -3085.26, 0.00, 0.00, -7312.13, 0.00, 0.00, 0.00, 0.00
221, 0.00, 16827.15, 0.00, -3049.65, 0.00, 0.00, -7692.93, 0.00, 0.00, 0.00, 0.00
222, 0.00, 16853.93, 0.00, -3082.33, 0.00, 0.00, -7239.08, 0.00, 0.00, -0.01, 1.02
223, 0.00, 16892.44, 0.00, -3122.63, 0.00, 0.00, -6804.36, 0.00, 0.00, 0.00, 0.00
224, 0.00, 16869.49, 0.00, -3089.44, 0.00, 0.00, -7209.02, 0.00, 0.00, 0.00, 0.00
225, 0.00, 16835.51, 0.00, -3045.34, 0.00, 0.00, -7681.78, 0.00, 0.00, 0.00, 0.00
226, 0.00, 16844.83, 0.00, -3072.72, 0.00, 0.00, -7356.09, 0.00, 0.00, 0.00, 0.00
227, 0.00, 16886.61, 0.00, -3114.42, 0.00, 0.00, -6836.19, 0.00, 0.00, 0.00, 0.00
228, 0.00, 16879.28, 0.00, -3095.78, 0.00, 0.00, -7109.55, 0.00, 0.00, -0.00, 1.03
229, 0.00, 16836.90, 0.00, -3051.35, 0.00, 0.00, -7669.24, 0.00, 0.00, 0.00, 0.00
230, 0.00, 16841.39, 0.00, -3062.05, 0.00, 0.00, -7463.00, 0.00, 0.00, 0.00, 0.00
231, 0.00, 16883.37, 0.00, -3105.53, 0.00, 0.00, -6870.55, 0.00, 0.00, 0.00, 0.00
232, 0.00, 16877.60, 0.00, -3100.57, 0.00, 0.00, -7005.24, 0.00, 0.00, 0.00, 0.00
233, 0.00, 16834.42, 0.00, -3051.64, 0.00, 0.00, -7609.16, 0.00, 0.00, -0.01, 1.02
234, 0.00, 16836.52, 0.00, -3050.16, 0.00, 0.00, -7551.85, 0.00, 0.00, 0.00, 0.00
235, 0.00, 16874.52, 0.00, -3095.27, 0.00, 0.00, -6966.66, 0.00, 0.00, 0.00, 0.00
236, 0.00, 16887.57, 0.00, -3100.54, 0.00, 0.00, -6912.57, 0.00, 0.00, 0.00, 0.00
237, 0.00, 16849.10, 0.00, -3054.95, 0.00, 0.00, -7493.80, 0.00, 0.00, 0.00, 0.00
238, 0.00, 16837.43, 0.00, -3037.62, 0.00, 0.00, -7624.07, 0.00, -0.00, -0.01, 1.01
239, 0.00, 16877.60, 0.00, -3076.99, 0.00, 0.00, -7044.02, 0.00, 0.00, 0.00, 0.00
240, 0.00, 16897.56, 0.00, -3102.06, 0.00, 0.00, -6825.37, 0.00, 0.00, 0.00, 0.00
241, 0.00, 16861.66, 0.00, -3070.35, 0.00, 0.00, -7386.49, 0.00, 0.00, 0.00, 0.00
242, 0.00, 16831.85, 0.00, -3051.06, 0.00, 0.00, -7674.72, 0.00, 0.00, 0.00, 0.00
243, 0.00, 16868.91, 0.00, -3092.74, 0.00, 0.00, -7160.14, 0.00, -0.00, -0.01, 1.01
244, 0.00, 16896.89, 0.00, -3126.27, 0.00, 0.00, -6815.02, 0.00, 0.00, 0.00, 0.00
245, 0.00, 16865.49, 0.00, -3092.70, 0.00, 0.00, -7284.57, 0.00, 0.00, 0.00, 0.00
246, 0.00, 16836.63, 0.00, -3058.88, 0.00, 0.00, -7695.28, 0.00, 0.00, 0.00, 0.00
247, 0.00, 16864.41, 0.00, -3088.16, 0.00, 0.00, -7273.55, 0.00, 0.00, 0.00, 0.00
248, 0.00, 16897.94, 0.00, -3124.71, 0.00, 0.00, -6812.79, 0.00, -0.01, -0.01, 1.02
249, 0.00, 16872.01, 0.00, -3098.80, 0.00, 0.00, -7171.87, 0.00, 0.00, 0.00, 0.00
250, 0.00, 16832.14, 0.00, -3058.28, 0.00, 0.00, -7690.32, 0.00, 0.00, 0.00, 0.00
251, 0.00, 16850.11, 0.00, -3078.30, 0.00, 0.00, -7389.08, 0.00, 0.00, 0.00, 0.00
252, 0.00, 16894.65, 0.00, -3118.40, 0.00, 0.00, -6829.02, 0.00, 0.00, 0.00, 0.00
253, 0.00, 16888.04, 0.00, -3107.05, 0.00, 0.00, -7054.55, 0.00, -0.01, -0.01, 1.02
254, 0.00, 16854.31, 0.00, -3063.08, 0.00, 0.00, -7643.31, 0.00, 0.00, 0.00, 0.00
255, 0.00, 16859.67, 0.00, -3074.75, 0.00, 0.00, -7480.59, 0.00, 0.00, 0.00, 0.00
0, 0.00, 16898.34, 0.00, -3118.58, 0.00, 0.00, -6892.05, 0.00, 0.00, 0.00, 0.00
1, 0.00, 16899.86, 0.00, -3110.96, 0.00, 0.00, -6923.36, 0.00, 0.00, 0.00, 0.00
2, 0.00, 16859.29, 0.00, -3053.45, 0.00, 0.00, -7528.04, 0.00, 0.00, -0.00, 1.02
3, 0.00, 16847.69, 0.00, -3019.27, 0.00, 0.00, -7582.02, 0.00, 0.00, 0.00, 0.00
4, 0.00, 16885.36, 0.00, -3043.32, 0.00, 0.00, -6980.85, 0.00, 0.00, 0.00, 0.00
5, 0.00, 16895.82, 0.00, -3044.24, 0.00, 0.00, -6872.96, 0.00, 0.00, 0.00, 0.00
6, 0.00, 16855.67, 0.00, -2985.01, 0.00, 0.00, -7477.69, 0.00, 0.00, 0.00, 0.00
7, 0.00, 16838.44, 0.00, -2970.37, 0.00, 0.00, -7644.10, 0.00, 0.00, 0.00, 0.00
8, 0.00, 16878.43, 0.00, -3032.35, 0.00, 0.00, -7089.55, 0.00, -0.01, -0.00, 1.01
9, 0.00, 16899.24, 0.00, -3060.78, 0.00, 0.00, -6826.58, 0.00, 0.00, 0.00, 0.00
10, 0.00, 16855.72, 0.00, -3037.87, 0.00, 0.00, -7357.12, 0.00, 0.00, 0.00, 0.00
11, 0.00, 16828.02, 0.00, -3037.98, 0.00, 0.00, -7684.42, 0.00, 0.00, 0.00, 0.00
12, 0.00, 16859.56, 0.00, -3101.89, 0.00, 0.00, -7200.75, 0.00, 0.00, 0.00, 0.00
13, 0.00, 16888.11, 0.00, -3141.40, 0.00, 0.00, -6792.38, 0.00, -0.00, -0.00, 1.02
14, 0.00, 16864.70, 0.00, -3097.57, 0.00, 0.00, -7233.09, 0.00, 0.00, 0.00, 0.00
15, 0.00, 16835.69, 0.00, -3054.75, 0.00, 0.00, -7691.03, 0.00, 0.00, 0.00, 0.00
16, 0.00, 16856.99, 0.00, -3078.84, 0.00, 0.00, -7306.20, 0.00, 0.00, 0.00, 0.00
17, 0.00, 16890.79, 0.00, -3116.46, 0.00, 0.00, -6841.38, 0.00, 0.00, 0.00, 0.00
18, 0.00, 16871.95, 0.00, -3092.63, 0.00, 0.00, -7126.41, 0.00, -0.00, -0.00, 1.02
19, 0.00, 16837.03, 0.00, -3051.95, 0.00, 0.00, -7640.36, 0.00, 0.00, 0.00, 0.00
20, 0.00, 16851.92, 0.00, -3071.87, 0.00, 0.00, -7424.51, 0.00, 0.00, 0.00, 0.00
21, 0.00, 16897.83, 0.00, -3114.42, 0.00, 0.00, -6868.89, 0.00, 0.00, 0.00, 0.00
22, 0.00, 16885.31, 0.00, -3102.29, 0.00, 0.00, -7021.15, 0.00, 0.00, 0.00, 0.00
23, 0.00, 16838.69, 0.00, -3061.32, 0.00, 0.00, -7620.87, 0.00, -0.01, -0.01, 1.02
24, 0.00, 16844.99, 0.00, -3064.96, 0.00, 0.00, -7523.40, 0.00, 0.00, 0.00, 0.00
25, 0.00, 16884.15, 0.00, -3106.60, 0.00, 0.00, -6926.45, 0.00, 0.00, 0.00, 0.00
26, 0.00, 16895.04, 0.00, -3111.88, 0.00, 0.00, -6925.89, 0.00, 0.00, 0.00, 0.00
27, 0.00, 16856.46, 0.00, -3063.78, 0.00, 0.00, -7537.72, 0.00, 0.00, 0.00, 0.00
28, 0.00, 16845.23, 0.00, -3052.94, 0.00, 0.00, -7587.01, 0.00, -0.00, -0.00, 1.02
29, 0.00, 16889.71, 0.00, -3099.34, 0.00, 0.00, -6999.94, 0.00, 0.00, 0.00, 0.00
30, 0.00, 16908.07, 0.00, -3113.89, 0.00, 0.00, -6842.27, 0.00, 0.00, 0.00, 0.00
31, 0.00, 16861.37, 0.00, -3069.45, 0.00, 0.00, -7423.73, 0.00, 0.00, 0.00, 0.00
32, 0.00, 16844.50, 0.00, -3048.64, 0.00, 0.00, -7658.60, 0.00, 0.00, 0.00, 0.00
33, 0.00, 16884.60, 0.00, -3091.72, 0.00, 0.00, -7126.88, 0.00, -0.00, -0.00, 1.02
34, 0.00, 16900.60, 0.00, -3118.54, 0.00, 0.00, -6834.27, 0.00, 0.00, 0.00, 0.00
35, 0.00, 16864.75, 0.00, -3076.54, 0.00, 0.00, -7326.30, 0.00, 0.00, 0.00, 0.00
36, 0.00, 16837.43, 0.00, -3045.76, 0.00, 0.00, -7699.04, 0.00, 0.00, 0.00, 0.00
37, 0.00, 16867.32, 0.00, -3077.59, 0.00, 0.00, -7259.78, 0.00, 0.00, 0.00, 0.00
38, 0.00, 16901.00, 0.00, -3114.51, 0.00, 0.00, -6818.87, 0.00, 0.00, 0.00, 0.00
39, 0.00, 16888.22, 0.00, -3085.37, 0.00, 0.00, -7213.27, 0.00, -0.00, 0.00, 1.02
40, 0.00, 16865.80, 0.00, -3040.75, 0.00, 0.00, -7692.17, 0.00, 0.00, 0.00, 0.00
41, 0.00, 16868.93, 0.00, -3064.85, 0.00, 0.00, -7354.19, 0.00, 0.00, 0.00, 0.00
42, 0.00, 16887.59, 0.00, -3106.74, 0.00, 0.00, -6836.48, 0.00, 0.00, 0.00, 0.00
43, 0.00, 16866.04, 0.00, -3086.51, 0.00, 0.00, -7107.83, 0.00, 0.00, 0.00, 0.00
44, 0.00, 16818.97, 0.00, -3037.80, 0.00, 0.00, -7676.08, 0.00, -0.01, 0.00, 1.02
45, 0.00, 16824.76, 0.00, -3044.42, 0.00, 0.00, -7447.60, 0.00, 0.00, 0.00, 0.00
46, 0.00, 16871.81, 0.00, -3088.81, 0.00, 0.00, -6861.09, 0.00, 0.00, 0.00, 0.00
47, 0.00, 16872.41, 0.00, -3083.58, 0.00, 0.00, -6975.24, 0.00, 0.00, 0.00, 0.00
48, 0.00, 16829.83, 0.00, -3031.50, 0.00, 0.00, -7591.97, 0.00, 0.00, 0.00, 0.00
49, 0.00, 16825.92, 0.00, -3026.83, 0.00, 0.00, -7575.92, 0.00, -0.00, 0.00, 1.01
50, 0.00, 16871.63, 0.00, -3072.78, 0.00, 0.00, -6966.50, 0.00, 0.00, 0.00, 0.00
51, 0.00, 16885.36, 0.00, -3077.10, 0.00, 0.00, -6907.43, 0.00, 0.00, 0.00, 0.00
52, 0.00, 16843.98, 0.00, -3027.97, 0.00, 0.00, -7505.56, 0.00, 0.00, 0.00, 0.00
53, 0.00, 16832.61, 0.00, -3010.20, 0.00, 0.00, -7651.56, 0.00, 0.00, 0.00, 0.00
54, 0.00, 16869.29, 0.00, -3047.88, 0.00, 0.00, -7068.45, 0.00, -0.00, 0.00, 1.01
55, 0.00, 16893.78, 0.00, -3061.45, 0.00, 0.00, -6812.19, 0.00, 0.00, 0.00, 0.00
56, 0.00, 16856.10, 0.00, -3012.48, 0.00, 0.00, -7389.51, 0.00, 0.00, 0.00, 0.00
57, 0.00, 16833.54, 0.00, -2981.70, 0.00, 0.00, -7679.84, 0.00, 0.00, 0.00, 0.00
58, 0.00, 16877.27, 0.00, -3015.61, 0.00, 0.00, -7160.29, 0.00, 0.00, 0.00, 0.00
59, 0.00, 16900.11, 0.00, -3043.84, 0.00, 0.00, -6815.25, 0.00, -0.01, -0.00, 1.01
60, 0.00, 16869.44, 0.00, -3002.02, 0.00, 0.00, -7293.08, 0.00, 0.00, 0.00, 0.00
61, 0.00, 16834.86, 0.00, -2963.53, 0.00, 0.00, -7692.78, 0.00, 0.00, 0.00, 0.00
62, 0.00, 16862.00, 0.00, -2991.83, 0.00, 0.00, -7285.64, 0.00, 0.00, 0.00, 0.00
63, 0.00, 16902.81, 0.00, -3022.45, 0.00, 0.00, -6825.71, 0.00, 0.00, 0.00, 0.00
64, 0.00, 16880.84, 0.00, -2991.58, 0.00, 0.00, -7173.26, 0.00, -0.01, -0.00, 1.02
65, 0.00, 16839.76, 0.00, -2951.59, 0.00, 0.00, -7681.60, 0.00, 0.00, 0.00, 0.00
66, 0.00, 16857.37, 0.00, -2974.50, 0.00, 0.00, -7399.63, 0.00, 0.00, 0.00, 0.00
67, 0.00, 16900.96, 0.00, -3017.17, 0.00, 0.00, -6868.67, 0.00, 0.00, 0.00, 0.00
68, 0.00, 16888.51, 0.00, -3006.76, 0.00, 0.00, -7082.66, 0.00, 0.00, 0.00, 0.00
69, 0.00, 16847.07, 0.00, -2967.84, 0.00, 0.00, -7634.75, 0.00, -0.01, -0.01, 1.01
70, 0.00, 16853.19, 0.00, -2980.07, 0.00, 0.00, -7502.72, 0.00, 0.00, 0.00, 0.00
71, 0.00, 16894.74, 0.00, -3032.62, 0.00, 0.00, -6912.99, 0.00, 0.00, 0.00, 0.00
72, 0.00, 16896.04, 0.00, -3042.88, 0.00, 0.00, -6953.63, 0.00, 0.00, 0.00, 0.00
73, 0.00, 16850.85, 0.00, -3006.85, 0.00, 0.00, -7567.14, 0.00, 0.00, 0.00, 0.00
74, 0.00, 16845.84, 0.00, -3011.83, 0.00, 0.00, -7580.50, 0.00, 0.00, 0.00, 0.00
75, 0.00, 16887.79, 0.00, -3064.07, 0.00, 0.00, -6994.51, 0.00, -0.00, -0.00, 1.02
76, 0.00, 16898.83, 0.00, -3080.72, 0.00, 0.00, -6878.10, 0.00, 0.00, 0.00, 0.00
77, 0.00, 16860.10, 0.00, -3047.01, 0.00, 0.00, -7459.25, 0.00, 0.00, 0.00, 0.00
78, 0.00, 16847.16, 0.00, -3038.32, 0.00, 0.00, -7640.76, 0.00, 0.00, 0.00, 0.00
79, 0.00, 16889.11, 0.00, -3083.00, 0.00, 0.00, -7080.79, 0.00, 0.00, 0.00, 0.00
80, 0.00, 16909.34, 0.00, -3113.02, 0.00, 0.00, -6827.23, 0.00, -0.01, -0.01, 1.02
81, 0.00, 16873.80, 0.00, -3077.21, 0.00, 0.00, -7337.63, 0.00, 0.00, 0.00, 0.00
82, 0.00, 16845.39, 0.00, -3052.91, 0.00, 0.00, -7665.84, 0.00, 0.00, 0.00, 0.00
83, 0.00, 16881.91, 0.00, -3089.15, 0.00, 0.00, -7205.75, 0.00, 0.00, 0.00, 0.00
84, 0.00, 16912.02, 0.00, -3122.25, 0.00, 0.00, -6808.45, 0.00, 0.00, 0.00, 0.00
85, 0.00, 16885.31, 0.00, -3099.49, 0.00, 0.00, -7220.75, 0.00, -0.01, -0.01, 1.02
86, 0.00, 16853.06, 0.00, -3064.45, 0.00, 0.00, -7683.41, 0.00, 0.00, 0.00, 0.00
87, 0.00, 16874.43, 0.00, -3088.70, 0.00, 0.00, -7333.29, 0.00, 0.00, 0.00, 0.00
88, 0.00, 16908.96, 0.00, -3126.29, 0.00, 0.00, -6858.16, 0.00, 0.00, 0.00, 0.00
89, 0.00, 16894.37, 0.00, -3106.13, 0.00, 0.00, -7156.18, 0.00, 0.00, 0.00, 0.00
90, 0.00, 16856.46, 0.00, -3064.56, 0.00, 0.00, -7651.34, 0.00, -0.00, -0.01, 1.02
91, 0.00, 16864.86, 0.00, -3079.53, 0.00, 0.00, -7406.12, 0.00, 0.00, 0.00, 0.00
92, 0.00, 16908.09, 0.00, -3124.97, 0.00, 0.00, -6870.84, 0.00, 0.00, 0.00, 0.00
93, 0.00, 16897.78, 0.00, -3116.88, 0.00, 0.00, -7055.31, 0.00, 0.00, 0.00, 0.00
94, 0.00, 16854.60, 0.00, -3071.29, 0.00, 0.00, -7590.61, 0.00, 0.00, 0.00, 0.00
95, 0.00, 16864.21, 0.00, -3073.21, 0.00, 0.00, -7520.22, 0.00, -0.00, -0.01, 1.02
96, 0.00, 16903.21, 0.00, -3119.03, 0.00, 0.00, -6939.72, 0.00, 0.00, 0.00, 0.00
97, 0.00, 16900.11, 0.00, -3122.25, 0.00, 0.00, -6927.72, 0.00, 0.00, 0.00, 0.00
98, 0.00, 16863.32, 0.00, -3079.02, 0.00, 0.00, -7534.77, 0.00, 0.00, 0.00, 0.00
99, 0.00, 16859.23, 0.00, -3070.95, 0.00, 0.00, -7606.43, 0.00, 0.00, 0.00, 0.00
100, 0.00, 16898.32, 0.00, -3113.13, 0.00, 0.00, -7030.90, 0.00, -0.01, -0.01, 1.01
101, 0.00, 16911.49, 0.00, -3132.84, 0.00, 0.00, -6858.88, 0.00, 0.00, 0.00, 0.00
102, 0.00, 16869.24, 0.00, -3086.53, 0.00, 0.00, -7430.23, 0.00, 0.00, 0.00, 0.00
103, 0.00, 16848.43, 0.00, -3064.02, 0.00, 0.00, -7669.49, 0.00, 0.00, 0.00, 0.00
104, 0.00, 16884.13, 0.00, -3103.27, 0.00, 0.00, -7157.07, 0.00, 0.00, 0.00, 0.00
105, 0.00, 16911.93, 0.00, -3129.33, 0.00, 0.00, -6823.29, 0.00, -0.01, -0.01, 1.01
106, 0.00, 16882.52, 0.00, -3097.59, 0.00, 0.00, -7290.00, 0.00, 0.00, 0.00, 0.00
107, 0.00, 16852.30, 0.00, -3066.64, 0.00, 0.00, -7665.58, 0.00, 0.00, 0.00, 0.00
108, 0.00, 16868.17, 0.00, -3094.24, 0.00, 0.00, -7236.73, 0.00, 0.00, 0.00, 0.00
109, 0.00, 16900.51, 0.00, -3129.58, 0.00, 0.00, -6820.01, 0.00, 0.00, 0.00, 0.00
110, 0.00, 16874.65, 0.00, -3105.69, 0.00, 0.00, -7199.88, 0.00, 0.00, 0.00, 0.00
111, 0.00, 16838.87, 0.00, -3064.51, 0.00, 0.00, -7679.39, 0.00, -0.00, -0.00, 1.02
112, 0.00, 16863.70, 0.00, -3085.86, 0.00, 0.00, -7354.60, 0.00, 0.00, 0.00, 0.00
113, 0.00, 16902.43, 0.00, -3131.95, 0.00, 0.00, -6818.04, 0.00, 0.00, 0.00, 0.00
114, 0.00, 16889.51, 0.00, -3115.43, 0.00, 0.00, -7077.37, 0.00, 0.00, 0.00, 0.00
115, 0.00, 16847.09, 0.00, -3065.23, 0.00, 0.00, -7663.34, 0.00, 0.00, 0.00, 0.00
116, 0.00, 16855.45, 0.00, -3074.62, 0.00, 0.00, -7472.34, 0.00, -0.01, -0.00, 1.02
117, 0.00, 16898.99, 0.00, -3125.13, 0.00, 0.00, -6897.84, 0.00, 0.00, 0.00, 0.00
118, 0.00, 16894.52, 0.00, -3126.05, 0.00, 0.00, -6991.31, 0.00, 0.00, 0.00, 0.00
119, 0.00, 16849.33, 0.00, -3079.80, 0.00, 0.00, -7572.75, 0.00, 0.00, 0.00, 0.00
120, 0.00, 16849.82, 0.00, -3074.86, 0.00, 0.00, -7542.51, 0.00, 0.00, 0.00, 0.00
121, 0.00, 16894.83, 0.00, -3124.42, 0.00, 0.00, -6959.42, 0.00, -0.00, 0.00, 1.02
122, 0.00, 16901.12, 0.00, -3129.27, 0.00, 0.00, -6897.88, 0.00, 0.00, 0.00, 0.00
123, 0.00, 16853.19, 0.00, -3086.13, 0.00, 0.00, -7464.14, 0.00, 0.00, 0.00, 0.00
124, 0.00, 16837.68, 0.00, -3071.71, 0.00, 0.00, -7605.38, 0.00, 0.00, 0.00, 0.00
125, 0.00, 16879.79, 0.00, -3116.15, 0.00, 0.00, -7051.06, 0.00, 0.00, 0.00, 0.00
126, 0.00, 16899.33, 0.00, -3138.36, 0.00, 0.00, -6830.98, 0.00, -0.00, -0.01, 1.02
127, 0.00, 16864.03, 0.00, -3101.15, 0.00, 0.00, -7366.22, 0.00, 0.00, 0.00, 0.00
128, 0.00, 16838.91, 0.00, -3075.47, 0.00, 0.00, -7653.39, 0.00, 0.00, 0.00, 0.00
129, 0.00, 16872.62, 0.00, -3106.42, 0.00, 0.00, -7149.85, 0.00, 0.00, 0.00, 0.00
130, 0.00, 16898.34, 0.00, -3137.74, 0.00, 0.00, -6807.00, 0.00, 0.00, 0.00, 0.00
131, 0.00, 16871.10, 0.00, -3108.73, 0.00, 0.00, -7265.37, 0.00, -0.00, -0.01, 1.02
132, 0.00, 16833.25, 0.00, -3071.98, 0.00, 0.00, -7682.81, 0.00, 0.00, 0.00, 0.00
133, 0.00, 16853.79, 0.00, -3096.63, 0.00, 0.00, -7284.75, 0.00, 0.00, 0.00, 0.00
134, 0.00, 16889.94, 0.00, -3143.39, 0.00, 0.00, -6818.73, 0.00, 0.00, 0.00, 0.00
135, 0.00, 16871.79, 0.00, -3121.09, 0.00, 0.00, -7160.20, 0.00, 0.00, 0.00, 0.00
136, 0.00, 16841.44, 0.00, -3076.29, 0.00, 0.00, -7669.53, 0.00, 0.00, -0.01, 1.02
137, 0.00, 16853.42, 0.00, -3090.69, 0.00, 0.00, -7404.33, 0.00, 0.00, 0.00, 0.00
138, 0.00, 16894.23, 0.00, -3138.27, 0.00, 0.00, -6846.47, 0.00, 0.00, 0.00, 0.00
139, 0.00, 16889.00, 0.00, -3134.12, 0.00, 0.00, -7046.97, 0.00, 0.00, 0.00, 0.00
140, 0.00, 16844.32, 0.00, -3085.12, 0.00, 0.00, -7647.40, 0.00, 0.00, 0.00, 0.00
141, 0.00, 16850.91, 0.00, -3089.66, 0.00, 0.00, -7505.47, 0.00, 0.00, 0.00, 0.00
142, 0.00, 16893.80, 0.00, -3132.98, 0.00, 0.00, -6887.73, 0.00, 0.00, -0.01, 1.01
143, 0.00, 16896.20, 0.00, -3135.57, 0.00, 0.00, -6946.79, 0.00, 0.00, 0.00, 0.00
144, 0.00, 16851.90, 0.00, -3090.78, 0.00, 0.00, -7579.45, 0.00, 0.00, 0.00, 0.00
145, 0.00, 16847.22, 0.00, -3082.80, 0.00, 0.00, -7594.32, 0.00, 0.00, 0.00, 0.00
146, 0.00, 16895.24, 0.00, -3131.59, 0.00, 0.00, -6967.02, 0.00, 0.00, 0.00, 0.00
147, 0.00, 16905.38, 0.00, -3140.96, 0.00, 0.00, -6859.39, 0.00, 0.00, -0.01, 1.01
148, 0.00, 16865.80, 0.00, -3095.74, 0.00, 0.00, -7449.21, 0.00, 0.00, 0.00, 0.00
149, 0.00, 16847.65, 0.00, -3081.72, 0.00, 0.00, -7632.09, 0.00, 0.00, 0.00, 0.00
150, 0.00, 16883.19, 0.00, -3119.83, 0.00, 0.00, -7075.60, 0.00, 0.00, 0.00, 0.00
151, 0.00, 16902.68, 0.00, -3142.68, 0.00, 0.00, -6828.01, 0.00, 0.00, 0.00, 0.00
152, 0.00, 16871.01, 0.00, -3104.03, 0.00, 0.00, -7349.45, 0.00, -0.00, -0.01, 1.02
153, 0.00, 16844.72, 0.00, -3079.42, 0.00, 0.00, -7688.13, 0.00, 0.00, 0.00, 0.00
154, 0.00, 16873.73, 0.00, -3116.70, 0.00, 0.00, -7212.48, 0.00, 0.00, 0.00, 0.00
155, 0.00, 16905.25, 0.00, -3148.56, 0.00, 0.00, -6810.71, 0.00, 0.00, 0.00, 0.00
156, 0.00, 16885.09, 0.00, -3116.53, 0.00, 0.00, -7219.19, 0.00, 0.00, 0.00, 0.00
157, 0.00, 16855.88, 0.00, -3080.79, 0.00, 0.00, -7668.68, 0.00, -0.01, -0.00, 1.01
158, 0.00, 16868.66, 0.00, -3106.78, 0.00, 0.00, -7310.18, 0.00, 0.00, 0.00, 0.00
159, 0.00, 16900.67, 0.00, -3148.98, 0.00, 0.00, -6826.13, 0.00, 0.00, 0.00, 0.00
160, 0.00, 16886.29, 0.00, -3127.52, 0.00, 0.00, -7130.59, 0.00, 0.00, 0.00, 0.00
161, 0.00, 16838.08, 0.00, -3085.90, 0.00, 0.00, -7673.55, 0.00, 0.00, 0.00, 0.00
162, 0.00, 16849.79, 0.00, -3101.73, 0.00, 0.00, -7445.61, 0.00, -0.01, -0.01, 1.01
163, 0.00, 16892.51, 0.00, -3147.53, 0.00, 0.00, -6863.46, 0.00, 0.00, 0.00, 0.00
164, 0.00, 16882.52, 0.00, -3139.59, 0.00, 0.00, -7020.73, 0.00, 0.00, 0.00, 0.00
165, 0.00, 16840.23, 0.00, -3092.90, 0.00, 0.00, -7595.39, 0.00, 0.00, 0.00, 0.00
166, 0.00, 16848.48, 0.00, -3094.46, 0.00, 0.00, -7527.33, 0.00, 0.00, 0.00, 0.00
167, 0.00, 16890.83, 0.00, -3143.68, 0.00, 0.00, -6940.64, 0.00, -0.01, -0.01, 1.02
168, 0.00, 16888.60, 0.00, -3145.92, 0.00, 0.00, -6936.98, 0.00, 0.00, 0.00, 0.00
169, 0.00, 16848.41, 0.00, -3104.08, 0.00, 0.00, -7511.26, 0.00, 0.00, 0.00, 0.00
170, 0.00, 16838.78, 0.00, -3090.13, 0.00, 0.00, -7591.03, 0.00, 0.00, 0.00, 0.00
171, 0.00, 16876.28, 0.00, -3135.26, 0.00, 0.00, -7030.50, 0.00, 0.00, 0.00, 0.00
172, 0.00, 16892.17, 0.00, -3151.42, 0.00, 0.00, -6837.24, 0.00, -0.00, -0.01, 1.02
173, 0.00, 16856.79, 0.00, -3107.38, 0.00, 0.00, -7410.52, 0.00, 0.00, 0.00, 0.00
174, 0.00, 16832.74, 0.00, -3087.38, 0.00, 0.00, -7658.40, 0.00, 0.00, 0.00, 0.00
175, 0.00, 16865.49, 0.00, -3127.90, 0.00, 0.00, -7128.44, 0.00, 0.00, 0.00, 0.00
176, 0.00, 16896.33, 0.00, -3155.55, 0.00, 0.00, -6819.34, 0.00, 0.00, 0.00, 0.00
177, 0.00, 16861.93, 0.00, -3120.42, 0.00, 0.00, -7322.01, 0.00, 0.00, 0.00, 0.00
178, 0.00, 16834.24, 0.00, -3088.47, 0.00, 0.00, -7681.82, 0.00, -0.00, -0.01, 1.02
179, 0.00, 16864.46, 0.00, -3119.81, 0.00, 0.00, -7249.90, 0.00, 0.00, 0.00, 0.00
180, 0.00, 16895.66, 0.00, -3154.32, 0.00, 0.00, -6813.73, 0.00, 0.00, 0.00, 0.00
181, 0.00, 16872.13, 0.00, -3127.95, 0.00, 0.00, -7195.96, 0.00, 0.00, 0.00, 0.00
182, 0.00, 16834.51, 0.00, -3092.43, 0.00, 0.00, -7690.54, 0.00, 0.00, 0.00, 0.00
183, 0.00, 16852.81, 0.00, -3120.84, 0.00, 0.00, -7383.41, 0.00, 0.00, -0.01, 1.02
184, 0.00, 16891.68, 0.00, -3160.07, 0.00, 0.00, -6845.94, 0.00, 0.00, 0.00, 0.00
185, 0.00, 16880.64, 0.00, -3140.73, 0.00, 0.00, -7078.19, 0.00, 0.00, 0.00, 0.00
186, 0.00, 16838.91, 0.00, -3094.96, 0.00, 0.00, -7657.91, 0.00, 0.00, 0.00, 0.00
187, 0.00, 16845.77, 0.00, -3105.28, 0.00, 0.00, -7476.19, 0.00, 0.00, 0.00, 0.00
188, 0.00, 16887.77, 0.00, -3152.76, 0.00, 0.00, -6887.00, 0.00, -0.00, -0.00, 1.02
189, 0.00, 16893.13, 0.00, -3153.36, 0.00, 0.00, -6961.20, 0.00, 0.00, 0.00, 0.00
190, 0.00, 16853.51, 0.00, -3105.82, 0.00, 0.00, -7553.97, 0.00, 0.00, 0.00, 0.00
191, 0.00, 16844.86, 0.00, -3101.28, 0.00, 0.00, -7555.27, 0.00, 0.00, 0.00, 0.00
192, 0.00, 16889.40, 0.00, -3150.41, 0.00, 0.00, -6981.10, 0.00, 0.00, 0.00, 0.00
193, 0.00, 16893.74, 0.00, -3161.14, 0.00, 0.00, -6902.08, 0.00, -0.00, -0.00, 1.02
194, 0.00, 16848.52, 0.00, -3109.95, 0.00, 0.00, -7475.29, 0.00, 0.00, 0.00, 0.00
195, 0.00, 16836.47, 0.00, -3096.81, 0.00, 0.00, -7626.73, 0.00, 0.00, 0.00, 0.00
196, 0.00, 16877.80, 0.00, -3139.73, 0.00, 0.00, -7054.81, 0.00, 0.00, 0.00, 0.00
197, 0.00, 16899.66, 0.00, -3162.03, 0.00, 0.00, -6835.10, 0.00, 0.00, 0.00, 0.00
198, 0.00, 16865.20, 0.00, -3123.63, 0.00, 0.00, -7387.45, 0.00, -0.00, -0.00, 1.02
199, 0.00, 16838.62, 0.00, -3092.39, 0.00, 0.00, -7690.27, 0.00, 0.00, 0.00, 0.00
200, 0.00, 16868.10, 0.00, -3131.21, 0.00, 0.00, -7192.28, 0.00, 0.00, 0.00, 0.00
201, 0.00, 16891.75, 0.00, -3161.74, 0.00, 0.00, -6833.87, 0.00, 0.00, 0.00, 0.00
202, 0.00, 16863.92, 0.00, -3128.19, 0.00, 0.00, -7278.93, 0.00, 0.00, 0.00, 0.00
203, 0.00, 16838.73, 0.00, -3093.66, 0.00, 0.00, -7684.57, 0.00, -0.01, -0.01, 1.01
204, 0.00, 16864.19, 0.00, -3121.02, 0.00, 0.00, -7283.16, 0.00, 0.00, 0.00, 0.00
205, 0.00, 16895.59, 0.00, -3158.17, 0.00, 0.00, -6803.96, 0.00, 0.00, 0.00, 0.00
206, 0.00, 16873.71, 0.00, -3133.89, 0.00, 0.00, -7144.60, 0.00, 0.00, 0.00, 0.00
207, 0.00, 16834.30, 0.00, -3091.92, 0.00, 0.00, -7676.08, 0.00, 0.00, 0.00, 0.00
208, 0.00, 16848.74, 0.00, -3106.04, 0.00, 0.00, -7397.73, 0.00, -0.01, -0.01, 1.01
209, 0.00, 16892.71, 0.00, -3153.63, 0.00, 0.00, -6860.58, 0.00, 0.00, 0.00, 0.00
210, 0.00, 16883.86, 0.00, -3140.04, 0.00, 0.00, -7042.81, 0.00, 0.00, 0.00, 0.00
211, 0.00, 16841.12, 0.00, -3095.07, 0.00, 0.00, -7618.08, 0.00, 0.00, 0.00, 0.00
212, 0.00, 16848.37, 0.00, -3105.13, 0.00, 0.00, -7500.28, 0.00, 0.00, 0.00, 0.00
213, 0.00, 16889.31, 0.00, -3154.39, 0.00, 0.00, -6906.15, 0.00, 0.00, 0.00, 0.00
214, 0.00, 16886.92, 0.00, -3161.86, 0.00, 0.00, -6948.35, 0.00, -0.01, -0.00, 1.01
215, 0.00, 16847.85, 0.00, -3115.23, 0.00, 0.00, -7550.55, 0.00, 0.00, 0.00, 0.00
216, 0.00, 16844.01, 0.00, -3113.08, 0.00, 0.00, -7598.25, 0.00, 0.00, 0.00, 0.00
217, 0.00, 16880.60, 0.00, -3164.69, 0.00, 0.00, -7005.95, 0.00, 0.00, 0.00, 0.00
218, 0.00, 16893.74, 0.00, -3176.43, 0.00, 0.00, -6868.76, 0.00, 0.00, 0.00, 0.00
219, 0.00, 16854.53, 0.00, -3133.13, 0.00, 0.00, -7460.10, 0.00, -0.01, -0.00, 1.02
220, 0.00, 16834.06, 0.00, -3116.53, 0.00, 0.00, -7665.11, 0.00, 0.00, 0.00, 0.00
221, 0.00, 16876.59, 0.00, -3157.74, 0.00, 0.00, -7098.80, 0.00, 0.00, 0.00, 0.00
222, 0.00, 16898.28, 0.00, -3182.87, 0.00, 0.00, -6831.43, 0.00, 0.00, 0.00, 0.00
223, 0.00, 16861.08, 0.00, -3142.99, 0.00, 0.00, -7361.52, 0.00, 0.00, 0.00, 0.00
224, 0.00, 16838.22, 0.00, -3115.25, 0.00, 0.00, -7682.38, 0.00, -0.01, -0.01, 1.02
225, 0.00, 16875.88, 0.00, -3148.91, 0.00, 0.00, -7206.96, 0.00, 0.00, 0.00, 0.00
226, 0.00, 16911.46, 0.00, -3182.84, 0.00, 0.00, -6811.58, 0.00, 0.00, 0.00, 0.00
227, 0.00, 16881.18, 0.00, -3154.66, 0.00, 0.00, -7249.83, 0.00, 0.00, 0.00, 0.00
228, 0.00, 16838.46, 0.00, -3116.79, 0.00, 0.00, -7720.94, 0.00, 0.00, 0.00, 0.00
229, 0.00, 16864.75, 0.00, -3135.97, 0.00, 0.00, -7324.31, 0.00, -0.01, 0.00, 1.01
230, 0.00, 16903.69, 0.00, -3161.63, 0.00, 0.00, -6803.02, 0.00, 0.00, 0.00, 0.00
231, 0.00, 16889.22, 0.00, -3114.16, 0.00, 0.00, -7088.19, 0.00, 0.00, 0.00, 0.00
232, 0.00, 16853.59, 0.00, -3052.26, 0.00, 0.00, -7655.74, 0.00, 0.00, 0.00, 0.00
233, 0.00, 16861.24, 0.00, -3052.60, 0.00, 0.00, -7440.23, 0.00, 0.00, 0.00, 0.00
234, 0.00, 16897.65, 0.00, -3084.07, 0.00, 0.00, -6875.04, 0.00, 0.00, -0.01, 1.02
235, 0.00, 16892.60, 0.00, -3091.74, 0.00, 0.00, -7021.20, 0.00, 0.00, 0.00, 0.00
236, 0.00, 16849.21, 0.00, -3064.36, 0.00, 0.00, -7612.98, 0.00, 0.00, 0.00, 0.00
237, 0.00, 16853.86, 0.00, -3066.37, 0.00, 0.00, -7532.36, 0.00, 0.00, 0.00, 0.00
238, 0.00, 16897.70, 0.00, -3123.54, 0.00, 0.00, -6931.88, 0.00, 0.00, 0.00, 0.00
239, 0.00, 16900.67, 0.00, -3162.46, 0.00, 0.00, -6923.48, 0.00, -0.01, -0.00, 1.02
240, 0.00, 16855.23, 0.00, -3148.13, 0.00, 0.00, -7524.29, 0.00, 0.00, 0.00, 0.00
241, 0.00, 16849.93, 0.00, -3135.82, 0.00, 0.00, -7613.70, 0.00, 0.00, 0.00, 0.00
242, 0.00, 16896.98, 0.00, -3169.23, 0.00, 0.00, -7023.41, 0.00, 0.00, 0.00, 0.00
243, 0.00, 16913.92, 0.00, -3182.46, 0.00, 0.00, -6845.15, 0.00, 0.00, 0.00, 0.00
244, 0.00, 16869.49, 0.00, -3141.90, 0.00, 0.00, -7417.92, 0.00, 0.00, 0.00, 0.00
245, 0.00, 16854.47, 0.00, -3118.38, 0.00, 0.00, -7669.64, 0.00, 0.00, -0.00, 1.01
246, 0.00, 16891.17, 0.00, -3152.87, 0.00, 0.00, -7151.62, 0.00, 0.00, 0.00, 0.00
247, 0.00, 16915.40, 0.00, -3181.86, 0.00, 0.00, -6826.27, 0.00, 0.00, 0.00, 0.00
248, 0.00, 16890.68, 0.00, -3151.66, 0.00, 0.00, -7296.15, 0.00, 0.00, 0.00, 0.00
249, 0.00, 16860.77, 0.00, -3118.78, 0.00, 0.00, -7692.11, 0.00, 0.00, 0.00, 0.00
250, 0.00, 16881.31, 0.00, -3150.28, 0.00, 0.00, -7248.60, 0.00, -0.00, -0.00, 1.02
251, 0.00, 16912.31, 0.00, -3186.91, 0.00, 0.00, -6797.70, 0.00, 0.00, 0.00, 0.00
252, 0.00, 16888.26, 0.00, -3159.62, 0.00, 0.00, -7186.56, 0.00, 0.00, 0.00, 0.00
253, 0.00, 16850.82, 0.00, -3118.43, 0.00, 0.00, -7677.27, 0.00, 0.00, 0.00, 0.00
254, 0.00, 16868.55, 0.00, -3141.58, 0.00, 0.00, -7362.08, 0.00, 0.00, 0.00, 0.00
255, 0.00, 16902.93, 0.00, -3184.48, 0.00, 0.00, -6824.19, 0.00, -0.00, -0.00, 1.01
0, 0.00, 16889.85, 0.00, -3169.66, 0.00, 0.00, -7058.81, 0.00, 0.00, 0.00, 0.00
1, 0.00, 16845.53, 0.00, -3125.89, 0.00, 0.00, -7618.57, 0.00, 0.00, 0.00, 0.00
2, 0.00, 16860.30, 0.00, -3133.80, 0.00, 0.00, -7441.99, 0.00, 0.00, 0.00, 0.00
3, 0.00, 16906.39, 0.00, -3180.25, 0.00, 0.00, -6866.50, 0.00, 0.00, 0.00, 0.00
4, 0.00, 16900.47, 0.00, -3174.22, 0.00, 0.00, -6956.47, 0.00, -0.00, -0.01, 1.01
5, 0.00, 16858.45, 0.00, -3126.54, 0.00, 0.00, -7563.11, 0.00, 0.00, 0.00, 0.00
6, 0.00, 16852.50, 0.00, -3124.01, 0.00, 0.00, -7559.81, 0.00, 0.00, 0.00, 0.00
7, 0.00, 16890.50, 0.00, -3173.70, 0.00, 0.00, -6968.31, 0.00, 0.00, 0.00, 0.00
8, 0.00, 16901.90, 0.00, -3185.68, 0.00, 0.00, -6884.74, 0.00, 0.00, 0.00, 0.00
9, 0.00, 16857.89, 0.00, -3132.28, 0.00, 0.00, -7475.99, 0.00, -0.00, -0.01, 1.01
10, 0.00, 16842.17, 0.00, -3114.29, 0.00, 0.00, -7623.33, 0.00, 0.00, 0.00, 0.00
11, 0.00, 16877.82, 0.00, -3159.04, 0.00, 0.00, -7064.72, 0.00, 0.00, 0.00, 0.00
12, 0.00, 16898.68, 0.00, -3183.80, 0.00, 0.00, -6839.70, 0.00, 0.00, 0.00, 0.00
13, 0.00, 16867.65, 0.00, -3143.91, 0.00, 0.00, -7388.23, 0.00, 0.00, 0.00, 0.00
14, 0.00, 16837.59, 0.00, -3115.65, 0.00, 0.00, -7685.40, 0.00, -0.00, -0.01, 1.01
15, 0.00, 16872.53, 0.00, -3147.84, 0.00, 0.00, -7181.82, 0.00, 0.00, 0.00, 0.00
16, 0.00, 16903.17, 0.00, -3179.54, 0.00, 0.00, -6799.22, 0.00, 0.00, 0.00, 0.00
17, 0.00, 16873.09, 0.00, -3139.35, 0.00, 0.00, -7271.16, 0.00, 0.00, 0.00, 0.00
18, 0.00, 16838.89, 0.00, -3101.51, 0.00, 0.00, -7710.26, 0.00, 0.00, 0.00, 0.00
19, 0.00, 16862.92, 0.00, -3131.68, 0.00, 0.00, -7269.79, 0.00, -0.00, -0.00, 1.01
20, 0.00, 16904.87, 0.00, -3171.94, 0.00, 0.00, -6799.67, 0.00, 0.00, 0.00, 0.00
21, 0.00, 16884.19, 0.00, -3144.91, 0.00, 0.00, -7145.38, 0.00, 0.00, 0.00, 0.00
22, 0.00, 16844.16, 0.00, -3095.16, 0.00, 0.00, -7673.44, 0.00, 0.00, 0.00, 0.00
23, 0.00, 16860.81, 0.00, -3106.47, 0.00, 0.00, -7404.66, 0.00, 0.00, 0.00, 0.00
24, 0.00, 16905.50, 0.00, -3148.85, 0.00, 0.00, -6846.81, 0.00, 0.00, 0.00, 0.00
25, 0.00, 16894.07, 0.00, -3135.59, 0.00, 0.00, -7030.45, 0.00, -0.02, -0.00, 1.02
26, 0.00, 16846.15, 0.00, -3087.74, 0.00, 0.00, -7598.34, 0.00, 0.00, 0.00, 0.00
27, 0.00, 16853.97, 0.00, -3083.80, 0.00, 0.00, -7492.80, 0.00, 0.00, 0.00, 0.00
28, 0.00, 16899.88, 0.00, -3124.77, 0.00, 0.00, -6890.55, 0.00, 0.00, 0.00, 0.00
29, 0.00, 16900.20, 0.00, -3121.69, 0.00, 0.00, -6934.72, 0.00, 0.00, 0.00, 0.00
30, 0.00, 16859.32, 0.00, -3070.37, 0.00, 0.00, -7533.95, 0.00, -0.01, -0.01, 1.01
31, 0.00, 16854.82, 0.00, -3059.15, 0.00, 0.00, -7569.48, 0.00, 0.00, 0.00, 0.00
32, 0.00, 16895.53, 0.00, -3099.92, 0.00, 0.00, -6994.80, 0.00, 0.00, 0.00, 0.00
33, 0.00, 16900.40, 0.00, -3108.48, 0.00, 0.00, -6873.94, 0.00, 0.00, 0.00, 0.00
34, 0.00, 16859.05, 0.00, -3060.31, 0.00, 0.00, -7452.70, 0.00, 0.00, 0.00, 0.00
35, 0.00, 16840.50, 0.00, -3036.19, 0.00, 0.00, -7650.62, 0.00, -0.01, -0.01, 1.02
36, 0.00, 16883.28, 0.00, -3077.70, 0.00, 0.00, -7108.30, 0.00, 0.00, 0.00, 0.00
37, 0.00, 16907.82, 0.00, -3104.57, 0.00, 0.00, -6826.71, 0.00, 0.00, 0.00, 0.00
38, 0.00, 16874.72, 0.00, -3068.76, 0.00, 0.00, -7329.23, 0.00, 0.00, 0.00, 0.00
39, 0.00, 16849.50, 0.00, -3042.23, 0.00, 0.00, -7666.45, 0.00, 0.00, 0.00, 0.00
40, 0.00, 16881.56, 0.00, -3078.06, 0.00, 0.00, -7198.60, 0.00, -0.01, -0.01, 1.01
41, 0.00, 16914.12, 0.00, -3114.20, 0.00, 0.00, -6796.36, 0.00, 0.00, 0.00, 0.00
42, 0.00, 16889.07, 0.00, -3093.73, 0.00, 0.00, -7227.21, 0.00, 0.00, 0.00, 0.00
43, 0.00, 16849.35, 0.00, -3064.09, 0.00, 0.00, -7691.59, 0.00, 0.00, 0.00, 0.00
44, 0.00, 16868.23, 0.00, -3094.82, 0.00, 0.00, -7355.53, 0.00, 0.00, 0.00, 0.00
45, 0.00, 16897.65, 0.00, -3146.97, 0.00, 0.00, -6832.62, 0.00, -0.01, -0.01, 1.01
46, 0.00, 16876.42, 0.00, -3138.48, 0.00, 0.00, -7107.74, 0.00, 0.00, 0.00, 0.00
47, 0.00, 16836.63, 0.00, -3103.14, 0.00, 0.00, -7632.27, 0.00, 0.00, 0.00, 0.00
48, 0.00, 16856.79, 0.00, -3125.69, 0.00, 0.00, -7413.56, 0.00, 0.00, 0.00, 0.00
49, 0.00, 16900.47, 0.00, -3175.60, 0.00, 0.00, -6859.84, 0.00, 0.00, 0.00, 0.00
50, 0.00, 16893.13, 0.00, -3177.46, 0.00, 0.00, -7031.14, 0.00, -0.01, -0.01, 1.01
51, 0.00, 16849.82, 0.00, -3136.28, 0.00, 0.00, -7587.14, 0.00, 0.00, 0.00, 0.00
52, 0.00, 16855.92, 0.00, -3141.11, 0.00, 0.00, -7508.46, 0.00, 0.00, 0.00, 0.00
53, 0.00, 16899.44, 0.00, -3192.23, 0.00, 0.00, -6904.63, 0.00, 0.00, 0.00, 0.00
54, 0.00, 16910.30, 0.00, -3203.47, 0.00, 0.00, -6895.94, 0.00, 0.00, 0.00, 0.00
55, 0.00, 16866.74, 0.00, -3157.23, 0.00, 0.00, -7497.02, 0.00, -0.01, -0.01, 1.01
56, 0.00, 16859.21, 0.00, -3146.68, 0.00, 0.00, -7584.57, 0.00, 0.00, 0.00, 0.00
57, 0.00, 16900.33, 0.00, -3190.82, 0.00, 0.00, -7021.31, 0.00, 0.00, 0.00, 0.00
58, 0.00, 16913.38, 0.00, -3214.14, 0.00, 0.00, -6856.64, 0.00, 0.00, 0.00, 0.00
59, 0.00, 16869.84, 0.00, -3175.80, 0.00, 0.00, -7406.90, 0.00, 0.00, 0.00, 0.00
60, 0.00, 16851.83, 0.00, -3152.51, 0.00, 0.00, -7640.97, 0.00, 0.00, 0.00, 0.00
61, 0.00, 16886.50, 0.00, -3189.28, 0.00, 0.00, -7134.94, 0.00, -0.01, -0.01, 1.02
62, 0.00, 16911.35, 0.00, -3222.14, 0.00, 0.00, -6813.53, 0.00, 0.00, 0.00, 0.00
63, 0.00, 16877.47, 0.00, -3188.01, 0.00, 0.00, -7295.74, 0.00, 0.00, 0.00, 0.00
64, 0.00, 16846.26, 0.00, -3155.22, 0.00, 0.00, -7686.52, 0.00, 0.00, 0.00, 0.00
65, 0.00, 16878.65, 0.00, -3186.67, 0.00, 0.00, -7243.51, 0.00, 0.00, 0.00, 0.00
66, 0.00, 16910.64, 0.00, -3217.13, 0.00, 0.00, -6789.16, 0.00, -0.01, -0.01, 1.01
67, 0.00, 16883.17, 0.00, -3195.76, 0.00, 0.00, -7190.85, 0.00, 0.00, 0.00, 0.00
68, 0.00, 16848.95, 0.00, -3158.97, 0.00, 0.00, -7672.01, 0.00, 0.00, 0.00, 0.00
69, 0.00, 16863.59, 0.00, -3180.85, 0.00, 0.00, -7376.46, 0.00, 0.00, 0.00, 0.00
70, 0.00, 16893.92, 0.00, -3224.60, 0.00, 0.00, -6847.32, 0.00, 0.00, 0.00, 0.00
71, 0.00, 16883.30, 0.00, -3205.20, 0.00, 0.00, -7081.43, 0.00, -0.01, -0.00, 1.01
72, 0.00, 16841.37, 0.00, -3165.14, 0.00, 0.00, -7614.77, 0.00, 0.00, 0.00, 0.00
73, 0.00, 16855.14, 0.00, -3173.08, 0.00, 0.00, -7454.46, 0.00, 0.00, 0.00, 0.00
74, 0.00, 16898.21, 0.00, -3219.32, 0.00, 0.00, -6868.40, 0.00, 0.00, 0.00, 0.00
75, 0.00, 16893.43, 0.00, -3214.49, 0.00, 0.00, -6969.88, 0.00, 0.00, 0.00, 0.00
76, 0.00, 16850.55, 0.00, -3166.26, 0.00, 0.00, -7584.73, 0.00, -0.01, -0.01, 1.01
77, 0.00, 16847.00, 0.00, -3165.23, 0.00, 0.00, -7563.47, 0.00, 0.00, 0.00, 0.00
78, 0.00, 16886.99, 0.00, -3208.66, 0.00, 0.00, -6944.69, 0.00, 0.00, 0.00, 0.00
79, 0.00, 16899.79, 0.00, -3222.47, 0.00, 0.00, -6865.76, 0.00, 0.00, 0.00, 0.00
80, 0.00, 16855.54, 0.00, -3177.57, 0.00, 0.00, -7478.71, 0.00, 0.00, 0.00, 0.00
81, 0.00, 16843.83, 0.00, -3163.60, 0.00, 0.00, -7614.61, 0.00, -0.01, -0.01, 1.01
82, 0.00, 16882.94, 0.00, -3207.23, 0.00, 0.00, -7056.02, 0.00, 0.00, 0.00, 0.00
83, 0.00, 16907.48, 0.00, -3228.64, 0.00, 0.00, -6829.60, 0.00, 0.00, 0.00, 0.00
84, 0.00, 16877.73, 0.00, -3187.58, 0.00, 0.00, -7371.47, 0.00, 0.00, 0.00, 0.00
85, 0.00, 16852.37, 0.00, -3160.04, 0.00, 0.00, -7672.91, 0.00, 0.00, 0.00, 0.00
86, 0.00, 16886.16, 0.00, -3196.61, 0.00, 0.00, -7180.25, 0.00, -0.00, -0.01, 1.01
87, 0.00, 16908.94, 0.00, -3228.24, 0.00, 0.00, -6832.35, 0.00, 0.00, 0.00, 0.00
88, 0.00, 16878.90, 0.00, -3199.29, 0.00, 0.00, -7268.21, 0.00, 0.00, 0.00, 0.00
89, 0.00, 16843.96, 0.00, -3165.25, 0.00, 0.00, -7677.02, 0.00, 0.00, 0.00, 0.00
90, 0.00, 16864.28, 0.00, -3192.86, 0.00, 0.00, -7289.60, 0.00, 0.00, 0.00, 0.00
91, 0.00, 16907.26, 0.00, -3226.76, 0.00, 0.00, -6799.06, 0.00, 0.00, 0.00, 0.00
92, 0.00, 16891.99, 0.00, -3205.93, 0.00, 0.00, -7118.92, 0.00, -0.00, -0.00, 1.01
93, 0.00, 16854.06, 0.00, -3168.83, 0.00, 0.00, -7652.21, 0.00, 0.00, 0.00, 0.00
94, 0.00, 16871.14, 0.00, -3184.05, 0.00, 0.00, -7397.06, 0.00, 0.00, 0.00, 0.00
95, 0.00, 16903.62, 0.00, -3228.98, 0.00, 0.00, -6842.85, 0.00, 0.00, 0.00, 0.00
96, 0.00, 16892.53, 0.00, -3218.74, 0.00, 0.00, -7025.62, 0.00, 0.00, 0.00, 0.00
97, 0.00, 16849.84, 0.00, -3176.27, 0.00, 0.00, -7617.68, 0.00, 0.00, -0.01, 1.01
98, 0.00, 16849.82, 0.00, -3182.42, 0.00, 0.00, -7520.09, 0.00, 0.00, 0.00, 0.00
99, 0.00, 16889.56, 0.00, -3226.61, 0.00, 0.00, -6911.70, 0.00, 0.00, 0.00, 0.00
100, 0.00, 16894.25, 0.00, -3230.32, 0.00, 0.00, -6947.91, 0.00, 0.00, 0.00, 0.00
101, 0.00, 16858.67, 0.00, -3185.06, 0.00, 0.00, -7530.26, 0.00, 0.00, 0.00, 0.00
102, 0.00, 16852.50, 0.00, -3172.45, 0.00, 0.00, -7541.52, 0.00, -0.00, -0.01, 1.01
103, 0.00, 16890.41, 0.00, -3221.71, 0.00, 0.00, -6963.26, 0.00, 0.00, 0.00, 0.00
104, 0.00, 16903.57, 0.00, -3241.05, 0.00, 0.00, -6851.41, 0.00, 0.00, 0.00, 0.00
105, 0.00, 16861.80, 0.00, -3200.81, 0.00, 0.00, -7436.09, 0.00, 0.00, 0.00, 0.00
106, 0.00, 16847.16, 0.00, -3181.68, 0.00, 0.00, -7637.48, 0.00, 0.00, 0.00, 0.00
107, 0.00, 16884.17, 0.00, -3217.62, 0.00, 0.00, -7102.42, 0.00, 0.00, -0.01, 1.01
108, 0.00, 16905.79, 0.00, -3242.63, 0.00, 0.00, -6824.08, 0.00, 0.00, 0.00, 0.00
109, 0.00, 16877.85, 0.00, -3210.54, 0.00, 0.00, -7332.00, 0.00, 0.00, 0.00, 0.00
110, 0.00, 16850.11, 0.00, -3176.72, 0.00, 0.00, -7670.81, 0.00, 0.00, 0.00, 0.00
111, 0.00, 16873.94, 0.00, -3210.02, 0.00, 0.00, -7208.35, 0.00, 0.00, 0.00, 0.00
112, 0.00, 16909.41, 0.00, -3244.47, 0.00, 0.00, -6791.78, 0.00, 0.00, -0.01, 1.02
113, 0.00, 16887.90, 0.00, -3215.66, 0.00, 0.00, -7214.96, 0.00, 0.00, 0.00, 0.00
114, 0.00, 16848.61, 0.00, -3179.76, 0.00, 0.00, -7691.70, 0.00, 0.00, 0.00, 0.00
115, 0.00, 16869.87, 0.00, -3205.71, 0.00, 0.00, -7338.61, 0.00, 0.00, 0.00, 0.00
116, 0.00, 16906.12, 0.00, -3246.34, 0.00, 0.00, -6825.40, 0.00, 0.00, 0.00, 0.00
117, 0.00, 16889.92, 0.00, -3226.16, 0.00, 0.00, -7091.85, 0.00, -0.01, -0.00, 1.01
118, 0.00, 16852.50, 0.00, -3185.84, 0.00, 0.00, -7642.20, 0.00, 0.00, 0.00, 0.00
119, 0.00, 16860.97, 0.00, -3199.14, 0.00, 0.00, -7428.42, 0.00, 0.00, 0.00, 0.00
120, 0.00, 16898.52, 0.00, -3243.73, 0.00, 0.00, -6872.18, 0.00, 0.00, 0.00, 0.00
121, 0.00, 16895.95, 0.00, -3238.37, 0.00, 0.00, -7010.13, 0.00, 0.00, 0.00, 0.00
122, 0.00, 16858.67, 0.00, -3193.15, 0.00, 0.00, -7596.44, 0.00, -0.00, -0.01, 1.02
123, 0.00, 16856.43, 0.00, -3190.58, 0.00, 0.00, -7518.03, 0.00, 0.00, 0.00, 0.00
124, 0.00, 16900.06, 0.00, -3237.40, 0.00, 0.00, -6930.36, 0.00, 0.00, 0.00, 0.00
125, 0.00, 16904.36, 0.00, -3247.13, 0.00, 0.00, -6902.62, 0.00, 0.00, 0.00, 0.00
126, 0.00, 16864.23, 0.00, -3201.42, 0.00, 0.00, -7484.08, 0.00, 0.00, 0.00, 0.00
127, 0.00, 16852.83, 0.00, -3187.05, 0.00, 0.00, -7584.42, 0.00, 0.00, 0.00, 0.00
128, 0.00, 16893.43, 0.00, -3231.61, 0.00, 0.00, -7029.60, 0.00, -0.01, -0.01, 1.01
129, 0.00, 16910.53, 0.00, -3250.37, 0.00, 0.00, -6839.57, 0.00, 0.00, 0.00, 0.00
130, 0.00, 16870.31, 0.00, -3208.01, 0.00, 0.00, -7410.83, 0.00, 0.00, 0.00, 0.00
131, 0.00, 16846.82, 0.00, -3186.44, 0.00, 0.00, -7651.61, 0.00, 0.00, 0.00, 0.00
132, 0.00, 16885.02, 0.00, -3230.52, 0.00, 0.00, -7140.31, 0.00, 0.00, 0.00, 0.00
133, 0.00, 16914.66, 0.00, -3256.18, 0.00, 0.00, -6802.44, 0.00, -0.00, -0.01, 1.01
134, 0.00, 16877.09, 0.00, -3217.78, 0.00, 0.00, -7279.52, 0.00, 0.00, 0.00, 0.00
135, 0.00, 16848.10, 0.00, -3186.78, 0.00, 0.00, -7689.33, 0.00, 0.00, 0.00, 0.00
136, 0.00, 16877.58, 0.00, -3224.66, 0.00, 0.00, -7262.10, 0.00, 0.00, 0.00, 0.00
137, 0.00, 16915.20, 0.00, -3258.06, 0.00, 0.00, -6778.90, 0.00, 0.00, 0.00, 0.00
138, 0.00, 16888.17, 0.00, -3232.82, 0.00, 0.00, -7161.07, 0.00, -0.00, -0.01, 1.01
139, 0.00, 16844.74, 0.00, -3192.12, 0.00, 0.00, -7670.83, 0.00, 0.00, 0.00, 0.00
140, 0.00, 16860.61, 0.00, -3210.54, 0.00, 0.00, -7361.21, 0.00, 0.00, 0.00, 0.00
141, 0.00, 16901.96, 0.00, -3256.18, 0.00, 0.00, -6822.15, 0.00, 0.00, 0.00, 0.00
142, 0.00, 16894.65, 0.00, -3241.18, 0.00, 0.00, -7060.94, 0.00, 0.00, 0.00, 0.00
143, 0.00, 16858.54, 0.00, -3198.98, 0.00, 0.00, -7608.04, 0.00, -0.01, -0.01, 1.01
144, 0.00, 16867.07, 0.00, -3208.59, 0.00, 0.00, -7444.94, 0.00, 0.00, 0.00, 0.00
145, 0.00, 16906.72, 0.00, -3250.26, 0.00, 0.00, -6874.97, 0.00, 0.00, 0.00, 0.00
146, 0.00, 16905.25, 0.00, -3245.34, 0.00, 0.00, -6965.16, 0.00, 0.00, 0.00, 0.00
147, 0.00, 16865.26, 0.00, -3198.80, 0.00, 0.00, -7556.25, 0.00, 0.00, 0.00, 0.00
148, 0.00, 16862.58, 0.00, -3198.56, 0.00, 0.00, -7550.96, 0.00, 0.00, -0.01, 1.01
149, 0.00, 16902.88, 0.00, -3248.85, 0.00, 0.00, -6951.75, 0.00, 0.00, 0.00, 0.00
150, 0.00, 16912.07, 0.00, -3254.66, 0.00, 0.00, -6877.81, 0.00, 0.00, 0.00, 0.00
151, 0.00, 16876.53, 0.00, -3208.84, 0.00, 0.00, -7472.63, 0.00, 0.00, 0.00, 0.00
152, 0.00, 16861.55, 0.00, -3196.30, 0.00, 0.00, -7620.72, 0.00, 0.00, 0.00, 0.00
153, 0.00, 16898.34, 0.00, -3242.66, 0.00, 0.00, -7065.36, 0.00, -0.00, -0.01, 1.01
154, 0.00, 16921.48, 0.00, -3260.27, 0.00, 0.00, -6828.93, 0.00, 0.00, 0.00, 0.00
155, 0.00, 16887.17, 0.00, -3218.18, 0.00, 0.00, -7363.27, 0.00, 0.00, 0.00, 0.00
156, 0.00, 16852.77, 0.00, -3193.46, 0.00, 0.00, -7657.48, 0.00, 0.00, 0.00, 0.00
157, 0.00, 16883.86, 0.00, -3234.10, 0.00, 0.00, -7175.80, 0.00, 0.00, 0.00, 0.00
158, 0.00, 16909.34, 0.00, -3268.29, 0.00, 0.00, -6828.93, 0.00, -0.01, -0.01, 1.01
159, 0.00, 16879.32, 0.00, -3233.94, 0.00, 0.00, -7268.56, 0.00, 0.00, 0.00, 0.00
160, 0.00, 16853.13, 0.00, -3195.90, 0.00, 0.00, -7672.46, 0.00, 0.00, 0.00, 0.00
161, 0.00, 16879.43, 0.00, -3225.56, 0.00, 0.00, -7288.84, 0.00, 0.00, 0.00, 0.00
