%OpenBCI Raw EEG Data
%
%Sample Rate = 250.0 Hz
%First Column = SampleIndex
%Other Columns = EEG data in microvolts followed by Accel Data (in G) interleaved with Aux Data
20, 0.00, 18075.95, 0.00, -1320.23, 0.00, 0.00, -12900.51, 0.00, -0.01, -0.01, 1.03
21, 0.00, 18107.35, 0.00, -1330.42, 0.00, 0.00, -12804.24, 0.00, 0.00, 0.00, 0.00
22, 0.00, 18082.63, 0.00, -1381.61, 0.00, 0.00, -12955.99, 0.00, -0.00, -0.00, 1.02
23, 0.00, 18048.77, 0.00, -1378.86, 0.00, 0.00, -13068.51, 0.00, 0.00, 0.00, 0.00
24, 0.00, 18072.08, 0.00, -1327.38, 0.00, 0.00, -12922.44, 0.00, 0.00, 0.00, 0.00
25, 0.00, 18099.19, 0.00, -1318.91, 0.00, 0.00, -12788.30, 0.00, 0.00, 0.00, 0.00
26, 0.00, 18071.92, 0.00, -1368.49, 0.00, 0.00, -12916.42, 0.00, 0.00, 0.00, 0.00
27, 0.00, 18040.45, 0.00, -1380.53, 0.00, 0.00, -13069.65, 0.00, -0.01, -0.00, 1.02
28, 0.00, 18062.40, 0.00, -1338.22, 0.00, 0.00, -12954.60, 0.00, 0.00, 0.00, 0.00
29, 0.00, 18095.55, 0.00, -1319.02, 0.00, 0.00, -12782.49, 0.00, 0.00, 0.00, 0.00
30, 0.00, 18072.57, 0.00, -1362.32, 0.00, 0.00, -12888.26, 0.00, 0.00, 0.00, 0.00
31, 0.00, 18032.27, 0.00, -1384.40, 0.00, 0.00, -13063.23, 0.00, 0.00, 0.00, 0.00
32, 0.00, 18052.21, 0.00, -1345.22, 0.00, 0.00, -12980.28, 0.00, -0.01, -0.01, 1.02
33, 0.00, 18092.53, 0.00, -1317.32, 0.00, 0.00, -12784.84, 0.00, 0.00, 0.00, 0.00
34, 0.00, 18087.23, 0.00, -1360.95, 0.00, 0.00, -12831.26, 0.00, 0.00, 0.00, 0.00
35, 0.00, 18044.29, 0.00, -1400.74, 0.00, 0.00, -13030.04, 0.00, 0.00, 0.00, 0.00
36, 0.00, 18043.65, 0.00, -1364.37, 0.00, 0.00, -13015.64, 0.00, 0.00, 0.00, 0.00
37, 0.00, 18088.89, 0.00, -1308.61, 0.00, 0.00, -12812.44, 0.00, -0.01, -0.01, 1.02
38, 0.00, 18089.24, 0.00, -1338.71, 0.00, 0.00, -12803.01, 0.00, 0.00, 0.00, 0.00
39, 0.00, 18053.95, 0.00, -1391.15, 0.00, 0.00, -12998.23, 0.00, 0.00, 0.00, 0.00
40, 0.00, 18047.76, 0.00, -1362.92, 0.00, 0.00, -13029.48, 0.00, 0.00, 0.00, 0.00
41, 0.00, 18086.49, 0.00, -1315.00, 0.00, 0.00, -12838.53, 0.00, 0.00, 0.00, 0.00
42, 0.00, 18101.96, 0.00, -1338.65, 0.00, 0.00, -12778.85, 0.00, 0.00, 0.00, 0.00
43, 0.00, 18060.14, 0.00, -1388.74, 0.00, 0.00, -12978.18, 0.00, -0.00, -0.01, 1.01
44, 0.00, 18046.02, 0.00, -1377.00, 0.00, 0.00, -13045.13, 0.00, 0.00, 0.00, 0.00
45, 0.00, 18087.61, 0.00, -1325.73, 0.00, 0.00, -12856.57, 0.00, 0.00, 0.00, 0.00
46, 0.00, 18111.82, 0.00, -1332.05, 0.00, 0.00, -12753.06, 0.00, 0.00, 0.00, 0.00
47, 0.00, 18076.28, 0.00, -1383.64, 0.00, 0.00, -12910.90, 0.00, 0.00, 0.00, 0.00
48, 0.00, 18042.17, 0.00, -1387.95, 0.00, 0.00, -13035.63, 0.00, -0.00, -0.01, 1.01
49, 0.00, 18069.35, 0.00, -1334.33, 0.00, 0.00, -12897.89, 0.00, 0.00, 0.00, 0.00
50, 0.00, 18099.28, 0.00, -1330.53, 0.00, 0.00, -12745.97, 0.00, 0.00, 0.00, 0.00
51, 0.00, 18074.51, 0.00, -1379.64, 0.00, 0.00, -12871.39, 0.00, 0.00, 0.00, 0.00
52, 0.00, 18047.18, 0.00, -1391.98, 0.00, 0.00, -13027.87, 0.00, 0.00, 0.00, 0.00
53, 0.00, 18069.02, 0.00, -1354.38, 0.00, 0.00, -12928.11, 0.00, -0.00, -0.00, 1.02
54, 0.00, 18097.18, 0.00, -1325.99, 0.00, 0.00, -12755.65, 0.00, 0.00, 0.00, 0.00
55, 0.00, 18080.06, 0.00, -1359.70, 0.00, 0.00, -12839.87, 0.00, 0.00, 0.00, 0.00
56, 0.00, 18041.61, 0.00, -1389.97, 0.00, 0.00, -13019.73, 0.00, 0.00, 0.00, 0.00
57, 0.00, 18053.19, 0.00, -1352.88, 0.00, 0.00, -12957.13, 0.00, 0.00, 0.00, 0.00
58, 0.00, 18093.80, 0.00, -1320.45, 0.00, 0.00, -12765.28, 0.00, -0.00, -0.01, 1.02
59, 0.00, 18093.76, 0.00, -1363.14, 0.00, 0.00, -12793.96, 0.00, 0.00, 0.00, 0.00
60, 0.00, 18048.72, 0.00, -1399.76, 0.00, 0.00, -12986.14, 0.00, 0.00, 0.00, 0.00
61, 0.00, 18048.54, 0.00, -1357.51, 0.00, 0.00, -12969.73, 0.00, 0.00, 0.00, 0.00
62, 0.00, 18085.20, 0.00, -1320.30, 0.00, 0.00, -12774.54, 0.00, 0.00, 0.00, 0.00
63, 0.00, 18084.26, 0.00, -1356.80, 0.00, 0.00, -12758.31, 0.00, -0.00, -0.01, 1.02
64, 0.00, 18041.88, 0.00, -1398.59, 0.00, 0.00, -12950.26, 0.00, 0.00, 0.00, 0.00
65, 0.00, 18037.86, 0.00, -1372.13, 0.00, 0.00, -12989.18, 0.00, 0.00, 0.00, 0.00
66, 0.00, 18080.46, 0.00, -1324.99, 0.00, 0.00, -12798.97, 0.00, 0.00, 0.00, 0.00
67, 0.00, 18096.22, 0.00, -1344.55, 0.00, 0.00, -12722.30, 0.00, 0.00, 0.00, 0.00
68, 0.00, 18057.26, 0.00, -1388.54, 0.00, 0.00, -12909.63, 0.00, 0.00, -0.01, 1.02
69, 0.00, 18043.85, 0.00, -1378.57, 0.00, 0.00, -13000.47, 0.00, 0.00, 0.00, 0.00
70, 0.00, 18075.34, 0.00, -1327.92, 0.00, 0.00, -12824.63, 0.00, 0.00, 0.00, 0.00
71, 0.00, 18099.82, 0.00, -1342.58, 0.00, 0.00, -12708.73, 0.00, 0.00, 0.00, 0.00
72, 0.00, 18059.67, 0.00, -1387.95, 0.00, 0.00, -12873.64, 0.00, 0.00, 0.00, 0.00
73, 0.00, 18031.46, 0.00, -1392.42, 0.00, 0.00, -13010.55, 0.00, 0.00, 0.00, 0.00
74, 0.00, 18064.37, 0.00, -1337.06, 0.00, 0.00, -12860.72, 0.00, -0.00, -0.01, 1.02
75, 0.00, 18097.89, 0.00, -1326.91, 0.00, 0.00, -12703.35, 0.00, 0.00, 0.00, 0.00
76, 0.00, 18067.56, 0.00, -1386.03, 0.00, 0.00, -12829.81, 0.00, 0.00, 0.00, 0.00
77, 0.00, 18031.53, 0.00, -1405.19, 0.00, 0.00, -12990.77, 0.00, 0.00, 0.00, 0.00
78, 0.00, 18052.68, 0.00, -1353.76, 0.00, 0.00, -12889.67, 0.00, 0.00, 0.00, 0.00
79, 0.00, 18097.58, 0.00, -1322.53, 0.00, 0.00, -12701.47, 0.00, 0.00, -0.01, 1.01
80, 0.00, 18084.15, 0.00, -1369.65, 0.00, 0.00, -12771.36, 0.00, 0.00, 0.00, 0.00
81, 0.00, 18043.18, 0.00, -1400.83, 0.00, 0.00, -12963.47, 0.00, 0.00, 0.00, 0.00
82, 0.00, 18048.32, 0.00, -1362.83, 0.00, 0.00, -12928.96, 0.00, 0.00, 0.00, 0.00
83, 0.00, 18088.97, 0.00, -1326.49, 0.00, 0.00, -12731.40, 0.00, 0.00, 0.00, 0.00
84, 0.00, 18087.61, 0.00, -1365.29, 0.00, 0.00, -12740.87, 0.00, 0.00, -0.00, 1.02
85, 0.00, 18046.51, 0.00, -1408.58, 0.00, 0.00, -12927.96, 0.00, 0.00, 0.00, 0.00
86, 0.00, 18052.74, 0.00, -1375.48, 0.00, 0.00, -12942.22, 0.00, 0.00, 0.00, 0.00
87, 0.00, 18094.61, 0.00, -1325.82, 0.00, 0.00, -12736.27, 0.00, 0.00, 0.00, 0.00
88, 0.00, 18091.46, 0.00, -1350.36, 0.00, 0.00, -12695.50, 0.00, 0.00, 0.00, 0.00
89, 0.00, 18052.68, 0.00, -1398.19, 0.00, 0.00, -12905.49, 0.00, 0.00, -0.01, 1.02
90, 0.00, 18040.58, 0.00, -1376.73, 0.00, 0.00, -12961.75, 0.00, 0.00, 0.00, 0.00
91, 0.00, 18077.29, 0.00, -1322.82, 0.00, 0.00, -12778.02, 0.00, 0.00, 0.00, 0.00
92, 0.00, 18091.03, 0.00, -1339.29, 0.00, 0.00, -12687.86, 0.00, 0.00, 0.00, 0.00
93, 0.00, 18048.45, 0.00, -1387.60, 0.00, 0.00, -12877.33, 0.00, 0.00, 0.00, 0.00
94, 0.00, 18031.44, 0.00, -1380.15, 0.00, 0.00, -12981.42, 0.00, 0.00, -0.00, 1.01
95, 0.00, 18074.31, 0.00, -1328.16, 0.00, 0.00, -12797.87, 0.00, 0.00, 0.00, 0.00
96, 0.00, 18103.55, 0.00, -1335.32, 0.00, 0.00, -12671.83, 0.00, 0.00, 0.00, 0.00
97, 0.00, 18073.20, 0.00, -1384.71, 0.00, 0.00, -12815.98, 0.00, 0.00, 0.00, 0.00
98, 0.00, 18038.66, 0.00, -1387.95, 0.00, 0.00, -12955.45, 0.00, 0.00, 0.00, 0.00
99, 0.00, 18063.54, 0.00, -1337.24, 0.00, 0.00, -12835.65, 0.00, -0.01, -0.00, 1.01
100, 0.00, 18090.23, 0.00, -1318.06, 0.00, 0.00, -12682.25, 0.00, 0.00, 0.00, 0.00
101, 0.00, 18068.08, 0.00, -1363.75, 0.00, 0.00, -12790.52, 0.00, 0.00, 0.00, 0.00
102, 0.00, 18028.40, 0.00, -1389.03, 0.00, 0.00, -12961.80, 0.00, 0.00, 0.00, 0.00
103, 0.00, 18049.99, 0.00, -1342.20, 0.00, 0.00, -12874.13, 0.00, 0.00, 0.00, 0.00
104, 0.00, 18102.74, 0.00, -1309.63, 0.00, 0.00, -12678.54, 0.00, -0.00, -0.00, 1.01
105, 0.00, 18092.80, 0.00, -1350.76, 0.00, 0.00, -12739.89, 0.00, 0.00, 0.00, 0.00
106, 0.00, 18045.37, 0.00, -1398.24, 0.00, 0.00, -12935.60, 0.00, 0.00, 0.00, 0.00
107, 0.00, 18059.36, 0.00, -1366.16, 0.00, 0.00, -12893.85, 0.00, 0.00, 0.00, 0.00
108, 0.00, 18107.21, 0.00, -1330.17, 0.00, 0.00, -12685.22, 0.00, 0.00, 0.00, 0.00
109, 0.00, 18104.17, 0.00, -1366.23, 0.00, 0.00, -12687.18, 0.00, 0.00, 0.00, 0.00
110, 0.00, 18049.55, 0.00, -1409.32, 0.00, 0.00, -12902.03, 0.00, 0.00, -0.01, 1.02
111, 0.00, 18039.71, 0.00, -1380.64, 0.00, 0.00, -12924.92, 0.00, 0.00, 0.00, 0.00
112, 0.00, 18075.25, 0.00, -1338.33, 0.00, 0.00, -12728.29, 0.00, 0.00, 0.00, 0.00
113, 0.00, 18084.21, 0.00, -1361.02, 0.00, 0.00, -12677.86, 0.00, 0.00, 0.00, 0.00
114, 0.00, 18039.44, 0.00, -1405.66, 0.00, 0.00, -12877.89, 0.00, 0.00, 0.00, 0.00
115, 0.00, 18027.75, 0.00, -1393.97, 0.00, 0.00, -12945.33, 0.00, 0.00, -0.01, 1.02
116, 0.00, 18063.49, 0.00, -1340.90, 0.00, 0.00, -12750.26, 0.00, 0.00, 0.00, 0.00
117, 0.00, 18084.21, 0.00, -1346.47, 0.00, 0.00, -12641.30, 0.00, 0.00, 0.00, 0.00
118, 0.00, 18052.92, 0.00, -1403.40, 0.00, 0.00, -12815.17, 0.00, 0.00, 0.00, 0.00
119, 0.00, 18025.52, 0.00, -1402.73, 0.00, 0.00, -12933.08, 0.00, 0.00, 0.00, 0.00
120, 0.00, 18059.07, 0.00, -1353.98, 0.00, 0.00, -12779.65, 0.00, -0.00, -0.01, 1.02
121, 0.00, 18091.46, 0.00, -1340.97, 0.00, 0.00, -12647.60, 0.00, 0.00, 0.00, 0.00
122, 0.00, 18061.13, 0.00, -1388.18, 0.00, 0.00, -12788.75, 0.00, 0.00, 0.00, 0.00
123, 0.00, 18033.72, 0.00, -1381.27, 0.00, 0.00, -12937.26, 0.00, 0.00, 0.00, 0.00
124, 0.00, 18065.37, 0.00, -1311.04, 0.00, 0.00, -12803.12, 0.00, 0.00, 0.00, 0.00
125, 0.00, 18101.74, 0.00, -1281.07, 0.00, 0.00, -12633.94, 0.00, -0.01, -0.01, 1.02
126, 0.00, 18080.24, 0.00, -1310.62, 0.00, 0.00, -12734.44, 0.00, 0.00, 0.00, 0.00
127, 0.00, 18033.45, 0.00, -1306.55, 0.00, 0.00, -12915.53, 0.00, 0.00, 0.00, 0.00
128, 0.00, 18051.92, 0.00, -1273.27, 0.00, 0.00, -12843.07, 0.00, 0.00, 0.00, 0.00
129, 0.00, 18088.89, 0.00, -1257.49, 0.00, 0.00, -12653.59, 0.00, 0.00, 0.00, 0.00
130, 0.00, 18079.32, 0.00, -1299.06, 0.00, 0.00, -12697.29, 0.00, -0.01, -0.00, 1.02
131, 0.00, 18040.49, 0.00, -1352.55, 0.00, 0.00, -12888.42, 0.00, 0.00, 0.00, 0.00
132, 0.00, 18039.40, 0.00, -1349.15, 0.00, 0.00, -12862.07, 0.00, 0.00, 0.00, 0.00
133, 0.00, 18077.73, 0.00, -1334.76, 0.00, 0.00, -12663.25, 0.00, 0.00, 0.00, 0.00
134, 0.00, 18081.64, 0.00, -1368.66, 0.00, 0.00, -12660.18, 0.00, 0.00, 0.00, 0.00
135, 0.00, 18037.23, 0.00, -1412.65, 0.00, 0.00, -12862.56, 0.00, 0.00, -0.00, 1.02
136, 0.00, 18039.47, 0.00, -1388.42, 0.00, 0.00, -12888.73, 0.00, 0.00, 0.00, 0.00
137, 0.00, 18078.83, 0.00, -1338.42, 0.00, 0.00, -12685.67, 0.00, 0.00, 0.00, 0.00
138, 0.00, 18087.23, 0.00, -1352.71, 0.00, 0.00, -12627.26, 0.00, 0.00, 0.00, 0.00
139, 0.00, 18043.36, 0.00, -1393.56, 0.00, 0.00, -12816.13, 0.00, 0.00, 0.00, 0.00
140, 0.00, 18025.77, 0.00, -1373.72, 0.00, 0.00, -12904.53, 0.00, 0.00, 0.00, 0.00
141, 0.00, 18068.75, 0.00, -1336.28, 0.00, 0.00, -12726.77, 0.00, 0.00, 0.00, 1.02
142, 0.00, 18093.94, 0.00, -1358.90, 0.00, 0.00, -12619.93, 0.00, 0.00, 0.00, 0.00
143, 0.00, 18055.47, 0.00, -1412.99, 0.00, 0.00, -12778.94, 0.00, 0.00, 0.00, 0.00
144, 0.00, 18031.80, 0.00, -1397.14, 0.00, 0.00, -12892.91, 0.00, 0.00, 0.00, 0.00
145, 0.00, 18064.32, 0.00, -1341.37, 0.00, 0.00, -12751.40, 0.00, 0.00, 0.00, 0.00
146, 0.00, 18090.88, 0.00, -1335.16, 0.00, 0.00, -12611.70, 0.00, -0.00, 0.00, 1.01
147, 0.00, 18059.38, 0.00, -1382.90, 0.00, 0.00, -12733.27, 0.00, 0.00, 0.00, 0.00
148, 0.00, 18028.27, 0.00, -1398.01, 0.00, 0.00, -12892.89, 0.00, 0.00, 0.00, 0.00
149, 0.00, 18062.49, 0.00, -1354.31, 0.00, 0.00, -12777.11, 0.00, 0.00, 0.00, 0.00
150, 0.00, 18097.96, 0.00, -1330.73, 0.00, 0.00, -12592.73, 0.00, 0.00, 0.00, 0.00
151, 0.00, 18079.90, 0.00, -1375.95, 0.00, 0.00, -12669.35, 0.00, -0.00, -0.00, 1.01
152, 0.00, 18034.30, 0.00, -1400.83, 0.00, 0.00, -12875.45, 0.00, 0.00, 0.00, 0.00
153, 0.00, 18047.45, 0.00, -1357.40, 0.00, 0.00, -12819.02, 0.00, 0.00, 0.00, 0.00
154, 0.00, 18094.59, 0.00, -1319.65, 0.00, 0.00, -12616.35, 0.00, 0.00, 0.00, 0.00
155, 0.00, 18090.25, 0.00, -1354.20, 0.00, 0.00, -12636.40, 0.00, 0.00, 0.00, 0.00
156, 0.00, 18043.51, 0.00, -1398.73, 0.00, 0.00, -12841.34, 0.00, -0.01, -0.00, 1.02
157, 0.00, 18042.28, 0.00, -1368.15, 0.00, 0.00, -12831.73, 0.00, 0.00, 0.00, 0.00
158, 0.00, 18086.16, 0.00, -1330.96, 0.00, 0.00, -12625.43, 0.00, 0.00, 0.00, 0.00
159, 0.00, 18085.06, 0.00, -1349.44, 0.00, 0.00, -12614.12, 0.00, 0.00, 0.00, 0.00
160, 0.00, 18042.69, 0.00, -1399.35, 0.00, 0.00, -12816.58, 0.00, 0.00, 0.00, 0.00
161, 0.00, 18038.68, 0.00, -1379.26, 0.00, 0.00, -12859.65, 0.00, 0.00, -0.00, 1.01
162, 0.00, 18081.18, 0.00, -1322.42, 0.00, 0.00, -12648.56, 0.00, 0.00, 0.00, 0.00
163, 0.00, 18097.71, 0.00, -1336.70, 0.00, 0.00, -12579.00, 0.00, 0.00, 0.00, 0.00
164, 0.00, 18059.38, 0.00, -1387.51, 0.00, 0.00, -12775.63, 0.00, 0.00, 0.00, 0.00
165, 0.00, 18038.33, 0.00, -1378.79, 0.00, 0.00, -12847.94, 0.00, 0.00, 0.00, 0.00
166, 0.00, 18074.36, 0.00, -1325.59, 0.00, 0.00, -12676.81, 0.00, 0.00, -0.00, 1.01
167, 0.00, 18097.87, 0.00, -1326.40, 0.00, 0.00, -12566.80, 0.00, 0.00, 0.00, 0.00
168, 0.00, 18058.73, 0.00, -1372.91, 0.00, 0.00, -12721.76, 0.00, 0.00, 0.00, 0.00
169, 0.00, 18032.98, 0.00, -1373.76, 0.00, 0.00, -12861.17, 0.00, 0.00, 0.00, 0.00
170, 0.00, 18061.57, 0.00, -1312.18, 0.00, 0.00, -12705.40, 0.00, 0.00, 0.00, 0.00
171, 0.00, 18094.38, 0.00, -1296.31, 0.00, 0.00, -12539.86, 0.00, 0.00, -0.01, 1.01
172, 0.00, 18063.88, 0.00, -1351.21, 0.00, 0.00, -12664.03, 0.00, 0.00, 0.00, 0.00
173, 0.00, 18022.46, 0.00, -1363.50, 0.00, 0.00, -12844.00, 0.00, 0.00, 0.00, 0.00
174, 0.00, 18050.24, 0.00, -1313.50, 0.00, 0.00, -12743.74, 0.00, 0.00, 0.00, 0.00
175, 0.00, 18093.71, 0.00, -1289.38, 0.00, 0.00, -12560.38, 0.00, 0.00, 0.00, 0.00
176, 0.00, 18075.74, 0.00, -1328.27, 0.00, 0.00, -12620.49, 0.00, 0.00, 0.00, 0.00
177, 0.00, 18035.35, 0.00, -1349.42, 0.00, 0.00, -12823.87, 0.00, -0.01, -0.01, 1.02
178, 0.00, 18046.93, 0.00, -1297.97, 0.00, 0.00, -12784.66, 0.00, 0.00, 0.00, 0.00
179, 0.00, 18089.40, 0.00, -1258.05, 0.00, 0.00, -12578.82, 0.00, 0.00, 0.00, 0.00
180, 0.00, 18082.49, 0.00, -1287.75, 0.00, 0.00, -12602.63, 0.00, 0.00, 0.00, 0.00
181, 0.00, 18043.82, 0.00, -1329.06, 0.00, 0.00, -12805.67, 0.00, 0.00, 0.00, 0.00
182, 0.00, 18048.38, 0.00, -1296.98, 0.00, 0.00, -12805.27, 0.00, -0.01, -0.01, 1.02
183, 0.00, 18086.14, 0.00, -1251.18, 0.00, 0.00, -12608.15, 0.00, 0.00, 0.00, 0.00
184, 0.00, 18087.93, 0.00, -1256.44, 0.00, 0.00, -12572.12, 0.00, 0.00, 0.00, 0.00
185, 0.00, 18046.35, 0.00, -1305.83, 0.00, 0.00, -12768.70, 0.00, 0.00, 0.00, 0.00
186, 0.00, 18043.71, 0.00, -1300.09, 0.00, 0.00, -12816.65, 0.00, 0.00, 0.00, 0.00
187, 0.00, 18085.42, 0.00, -1249.95, 0.00, 0.00, -12641.39, 0.00, -0.01, -0.01, 1.01
188, 0.00, 18099.39, 0.00, -1262.11, 0.00, 0.00, -12549.90, 0.00, 0.00, 0.00, 0.00
189, 0.00, 18057.84, 0.00, -1312.63, 0.00, 0.00, -12731.75, 0.00, 0.00, 0.00, 0.00
190, 0.00, 18037.97, 0.00, -1315.91, 0.00, 0.00, -12830.37, 0.00, 0.00, 0.00, 0.00
191, 0.00, 18070.67, 0.00, -1269.62, 0.00, 0.00, -12665.75, 0.00, 0.00, 0.00, 0.00
192, 0.00, 18092.31, 0.00, -1276.75, 0.00, 0.00, -12550.19, 0.00, -0.01, -0.01, 1.02
193, 0.00, 18056.48, 0.00, -1338.00, 0.00, 0.00, -12690.25, 0.00, 0.00, 0.00, 0.00
194, 0.00, 18025.94, 0.00, -1350.74, 0.00, 0.00, -12825.79, 0.00, 0.00, 0.00, 0.00
195, 0.00, 18059.34, 0.00, -1312.94, 0.00, 0.00, -12693.98, 0.00, 0.00, 0.00, 0.00
196, 0.00, 18099.88, 0.00, -1309.79, 0.00, 0.00, -12518.90, 0.00, 0.00, 0.00, 0.00
197, 0.00, 18070.51, 0.00, -1370.72, 0.00, 0.00, -12626.86, 0.00, -0.00, -0.01, 1.02
198, 0.00, 18033.19, 0.00, -1386.86, 0.00, 0.00, -12811.51, 0.00, 0.00, 0.00, 0.00
199, 0.00, 18051.74, 0.00, -1341.31, 0.00, 0.00, -12725.83, 0.00, 0.00, 0.00, 0.00
200, 0.00, 18083.30, 0.00, -1319.11, 0.00, 0.00, -12524.49, 0.00, 0.00, 0.00, 0.00
201, 0.00, 18073.44, 0.00, -1375.35, 0.00, 0.00, -12586.18, 0.00, 0.00, 0.00, 0.00
202, 0.00, 18032.00, 0.00, -1413.99, 0.00, 0.00, -12789.82, 0.00, -0.01, -0.00, 1.01
203, 0.00, 18040.03, 0.00, -1373.34, 0.00, 0.00, -12766.69, 0.00, 0.00, 0.00, 0.00
204, 0.00, 18086.67, 0.00, -1333.21, 0.00, 0.00, -12554.46, 0.00, 0.00, 0.00, 0.00
205, 0.00, 18084.93, 0.00, -1372.17, 0.00, 0.00, -12551.69, 0.00, 0.00, 0.00, 0.00
206, 0.00, 18030.59, 0.00, -1416.30, 0.00, 0.00, -12770.60, 0.00, 0.00, 0.00, 0.00
207, 0.00, 18026.46, 0.00, -1387.80, 0.00, 0.00, -12788.13, 0.00, -0.01, -0.01, 1.01
208, 0.00, 18073.42, 0.00, -1335.43, 0.00, 0.00, -12580.37, 0.00, 0.00, 0.00, 0.00
209, 0.00, 18082.25, 0.00, -1359.48, 0.00, 0.00, -12532.24, 0.00, 0.00, 0.00, 0.00
210, 0.00, 18037.32, 0.00, -1415.98, 0.00, 0.00, -12731.26, 0.00, 0.00, 0.00, 0.00
211, 0.00, 18026.61, 0.00, -1399.64, 0.00, 0.00, -12789.89, 0.00, 0.00, 0.00, 0.00
212, 0.00, 18071.85, 0.00, -1340.68, 0.00, 0.00, -12608.33, 0.00, 0.00, 0.00, 0.00
213, 0.00, 18091.57, 0.00, -1349.53, 0.00, 0.00, -12503.19, 0.00, -0.00, -0.01, 1.01
214, 0.00, 18056.16, 0.00, -1404.52, 0.00, 0.00, -12680.68, 0.00, 0.00, 0.00, 0.00
215, 0.00, 18028.67, 0.00, -1404.45, 0.00, 0.00, -12801.56, 0.00, 0.00, 0.00, 0.00
216, 0.00, 18061.08, 0.00, -1359.21, 0.00, 0.00, -12636.20, 0.00, 0.00, 0.00, 0.00
217, 0.00, 18091.66, 0.00, -1350.87, 0.00, 0.00, -12484.81, 0.00, 0.00, 0.00, 0.00
218, 0.00, 18056.07, 0.00, -1406.91, 0.00, 0.00, -12622.83, 0.00, -0.00, -0.01, 1.02
219, 0.00, 18024.51, 0.00, -1418.80, 0.00, 0.00, -12779.65, 0.00, 0.00, 0.00, 0.00
220, 0.00, 18053.28, 0.00, -1359.70, 0.00, 0.00, -12663.78, 0.00, 0.00, 0.00, 0.00
221, 0.00, 18083.32, 0.00, -1341.60, 0.00, 0.00, -12489.95, 0.00, 0.00, 0.00, 0.00
222, 0.00, 18062.80, 0.00, -1390.41, 0.00, 0.00, -12585.28, 0.00, 0.00, 0.00, 0.00
223, 0.00, 18026.48, 0.00, -1417.64, 0.00, 0.00, -12772.90, 0.00, -0.01, -0.01, 1.02
224, 0.00, 18041.84, 0.00, -1375.10, 0.00, 0.00, -12699.05, 0.00, 0.00, 0.00, 0.00
225, 0.00, 18087.84, 0.00, -1343.14, 0.00, 0.00, -12496.75, 0.00, 0.00, 0.00, 0.00
226, 0.00, 18072.44, 0.00, -1381.11, 0.00, 0.00, -12546.24, 0.00, 0.00, 0.00, 0.00
227, 0.00, 18029.47, 0.00, -1414.78, 0.00, 0.00, -12753.97, 0.00, 0.00, 0.00, 0.00
228, 0.00, 18032.63, 0.00, -1383.95, 0.00, 0.00, -12736.27, 0.00, -0.01, -0.01, 1.02
229, 0.00, 18079.37, 0.00, -1345.42, 0.00, 0.00, -12526.21, 0.00, 0.00, 0.00, 0.00
230, 0.00, 18077.78, 0.00, -1368.95, 0.00, 0.00, -12517.25, 0.00, 0.00, 0.00, 0.00
231, 0.00, 18031.49, 0.00, -1409.30, 0.00, 0.00, -12717.38, 0.00, 0.00, 0.00, 0.00
232, 0.00, 18031.82, 0.00, -1393.32, 0.00, 0.00, -12758.08, 0.00, 0.00, 0.00, 0.00
233, 0.00, 18076.41, 0.00, -1346.94, 0.00, 0.00, -12540.83, 0.00, 0.00, -0.01, 1.01
234, 0.00, 18088.86, 0.00, -1368.24, 0.00, 0.00, -12472.59, 0.00, 0.00, 0.00, 0.00
235, 0.00, 18044.00, 0.00, -1408.83, 0.00, 0.00, -12674.60, 0.00, 0.00, 0.00, 0.00
236, 0.00, 18027.44, 0.00, -1399.15, 0.00, 0.00, -12758.31, 0.00, 0.00, 0.00, 0.00
237, 0.00, 18062.91, 0.00, -1350.74, 0.00, 0.00, -12575.07, 0.00, 0.00, 0.00, 0.00
238, 0.00, 18086.81, 0.00, -1352.33, 0.00, 0.00, -12452.89, 0.00, -0.00, -0.01, 1.02
239, 0.00, 18051.74, 0.00, -1403.11, 0.00, 0.00, -12619.55, 0.00, 0.00, 0.00, 0.00
240, 0.00, 18019.48, 0.00, -1408.05, 0.00, 0.00, -12761.44, 0.00, 0.00, 0.00, 0.00
241, 0.00, 18051.22, 0.00, -1360.13, 0.00, 0.00, -12618.10, 0.00, 0.00, 0.00, 0.00
242, 0.00, 18082.43, 0.00, -1352.08, 0.00, 0.00, -12467.76, 0.00, 0.00, 0.00, 0.00
243, 0.00, 18052.90, 0.00, -1409.26, 0.00, 0.00, -12594.45, 0.00, 0.00, 0.00, 0.00
244, 0.00, 18018.25, 0.00, -1421.55, 0.00, 0.00, -12762.71, 0.00, 0.00, -0.01, 1.01
245, 0.00, 18050.13, 0.00, -1365.40, 0.00, 0.00, -12651.00, 0.00, 0.00, 0.00, 0.00
246, 0.00, 18087.95, 0.00, -1348.39, 0.00, 0.00, -12470.04, 0.00, 0.00, 0.00, 0.00
247, 0.00, 18069.28, 0.00, -1401.61, 0.00, 0.00, -12550.04, 0.00, 0.00, 0.00, 0.00
248, 0.00, 18031.22, 0.00, -1431.79, 0.00, 0.00, -12723.04, 0.00, 0.00, 0.00, 0.00
249, 0.00, 18045.41, 0.00, -1385.05, 0.00, 0.00, -12668.50, 0.00, -0.00, -0.00, 1.01
250, 0.00, 18089.27, 0.00, -1347.61, 0.00, 0.00, -12478.04, 0.00, 0.00, 0.00, 0.00
251, 0.00, 18074.45, 0.00, -1383.84, 0.00, 0.00, -12502.36, 0.00, 0.00, 0.00, 0.00
252, 0.00, 18027.53, 0.00, -1428.30, 0.00, 0.00, -12704.15, 0.00, 0.00, 0.00, 0.00
253, 0.00, 18035.11, 0.00, -1387.95, 0.00, 0.00, -12699.86, 0.00, 0.00, 0.00, 0.00
254, 0.00, 18077.96, 0.00, -1349.82, 0.00, 0.00, -12493.26, 0.00, 0.00, -0.00, 1.02
255, 0.00, 18084.10, 0.00, -1380.15, 0.00, 0.00, -12468.61, 0.00, 0.00, 0.00, 0.00
0, 0.00, 18040.81, 0.00, -1425.50, 0.00, 0.00, -12680.01, 0.00, 0.00, 0.00, 0.00
1, 0.00, 18028.40, 0.00, -1404.78, 0.00, 0.00, -12730.26, 0.00, 0.00, 0.00, 0.00
2, 0.00, 18073.42, 0.00, -1353.53, 0.00, 0.00, -12520.66, 0.00, 0.00, 0.00, 0.00
3, 0.00, 18081.35, 0.00, -1366.88, 0.00, 0.00, -12438.12, 0.00, -0.00, 0.00, 1.02
4, 0.00, 18046.04, 0.00, -1423.45, 0.00, 0.00, -12636.96, 0.00, 0.00, 0.00, 0.00
5, 0.00, 18026.41, 0.00, -1415.11, 0.00, 0.00, -12734.37, 0.00, 0.00, 0.00, 0.00
6, 0.00, 18065.33, 0.00, -1361.04, 0.00, 0.00, -12560.47, 0.00, 0.00, 0.00, 0.00
7, 0.00, 18091.26, 0.00, -1361.80, 0.00, 0.00, -12431.06, 0.00, 0.00, 0.00, 0.00
8, 0.00, 18056.81, 0.00, -1412.50, 0.00, 0.00, -12580.46, 0.00, -0.00, -0.00, 1.01
9, 0.00, 18028.31, 0.00, -1422.46, 0.00, 0.00, -12738.08, 0.00, 0.00, 0.00, 0.00
10, 0.00, 18064.63, 0.00, -1374.21, 0.00, 0.00, -12600.42, 0.00, 0.00, 0.00, 0.00
11, 0.00, 18100.24, 0.00, -1365.00, 0.00, 0.00, -12416.10, 0.00, 0.00, 0.00, 0.00
12, 0.00, 18071.45, 0.00, -1410.31, 0.00, 0.00, -12535.86, 0.00, 0.00, 0.00, 0.00
13, 0.00, 18033.41, 0.00, -1429.64, 0.00, 0.00, -12717.45, 0.00, -0.00, -0.01, 1.01
14, 0.00, 18055.49, 0.00, -1384.51, 0.00, 0.00, -12628.44, 0.00, 0.00, 0.00, 0.00
15, 0.00, 18097.25, 0.00, -1354.20, 0.00, 0.00, -12437.99, 0.00, 0.00, 0.00, 0.00
16, 0.00, 18078.45, 0.00, -1400.69, 0.00, 0.00, -12504.55, 0.00, 0.00, 0.00, 0.00
17, 0.00, 18042.30, 0.00, -1437.46, 0.00, 0.00, -12700.93, 0.00, 0.00, 0.00, 0.00
18, 0.00, 18055.36, 0.00, -1397.16, 0.00, 0.00, -12669.33, 0.00, -0.01, -0.01, 1.02
19, 0.00, 18095.88, 0.00, -1361.91, 0.00, 0.00, -12449.52, 0.00, 0.00, 0.00, 0.00
20, 0.00, 18088.44, 0.00, -1395.13, 0.00, 0.00, -12459.58, 0.00, 0.00, 0.00, 0.00
21, 0.00, 18040.54, 0.00, -1436.01, 0.00, 0.00, -12667.83, 0.00, 0.00, 0.00, 0.00
22, 0.00, 18034.73, 0.00, -1397.45, 0.00, 0.00, -12684.59, 0.00, 0.00, 0.00, 0.00
23, 0.00, 18079.74, 0.00, -1356.71, 0.00, 0.00, -12481.75, 0.00, 0.00, 0.00, 0.00
24, 0.00, 18084.30, 0.00, -1381.09, 0.00, 0.00, -12436.98, 0.00, -0.01, -0.01, 1.01
25, 0.00, 18041.79, 0.00, -1422.15, 0.00, 0.00, -12632.74, 0.00, 0.00, 0.00, 0.00
26, 0.00, 18030.21, 0.00, -1404.94, 0.00, 0.00, -12696.19, 0.00, 0.00, 0.00, 0.00
27, 0.00, 18070.69, 0.00, -1367.12, 0.00, 0.00, -12498.92, 0.00, 0.00, 0.00, 0.00
28, 0.00, 18085.60, 0.00, -1379.82, 0.00, 0.00, -12424.42, 0.00, 0.00, 0.00, 0.00
29, 0.00, 18050.69, 0.00, -1426.91, 0.00, 0.00, -12589.26, 0.00, -0.01, -0.01, 1.01
30, 0.00, 18030.53, 0.00, -1420.39, 0.00, 0.00, -12687.68, 0.00, 0.00, 0.00, 0.00
31, 0.00, 18061.88, 0.00, -1378.12, 0.00, 0.00, -12528.60, 0.00, 0.00, 0.00, 0.00
32, 0.00, 18082.87, 0.00, -1368.31, 0.00, 0.00, -12394.98, 0.00, 0.00, 0.00, 0.00
33, 0.00, 18053.75, 0.00, -1415.27, 0.00, 0.00, -12542.44, 0.00, 0.00, 0.00, 0.00
34, 0.00, 18030.39, 0.00, -1427.92, 0.00, 0.00, -12682.85, 0.00, -0.00, -0.01, 1.01
35, 0.00, 18063.32, 0.00, -1379.01, 0.00, 0.00, -12553.88, 0.00, 0.00, 0.00, 0.00
36, 0.00, 18093.47, 0.00, -1361.60, 0.00, 0.00, -12388.43, 0.00, 0.00, 0.00, 0.00
37, 0.00, 18065.13, 0.00, -1411.29, 0.00, 0.00, -12495.74, 0.00, 0.00, 0.00, 0.00
38, 0.00, 18028.11, 0.00, -1434.91, 0.00, 0.00, -12681.28, 0.00, 0.00, 0.00, 0.00
39, 0.00, 18049.95, 0.00, -1389.99, 0.00, 0.00, -12602.29, 0.00, -0.01, -0.00, 1.01
40, 0.00, 18090.65, 0.00, -1358.83, 0.00, 0.00, -12407.83, 0.00, 0.00, 0.00, 0.00
41, 0.00, 18074.36, 0.00, -1404.02, 0.00, 0.00, -12465.05, 0.00, 0.00, 0.00, 0.00
42, 0.00, 18030.46, 0.00, -1441.55, 0.00, 0.00, -12663.58, 0.00, 0.00, 0.00, 0.00
43, 0.00, 18041.84, 0.00, -1406.80, 0.00, 0.00, -12636.47, 0.00, 0.00, 0.00, 0.00
44, 0.00, 18088.82, 0.00, -1358.45, 0.00, 0.00, -12436.09, 0.00, -0.01, -0.00, 1.00
45, 0.00, 18093.22, 0.00, -1386.55, 0.00, 0.00, -12429.80, 0.00, 0.00, 0.00, 0.00
46, 0.00, 18050.66, 0.00, -1435.00, 0.00, 0.00, -12629.83, 0.00, 0.00, 0.00, 0.00
47, 0.00, 18037.30, 0.00, -1417.68, 0.00, 0.00, -12653.12, 0.00, 0.00, 0.00, 0.00
48, 0.00, 18084.10, 0.00, -1369.42, 0.00, 0.00, -12444.76, 0.00, 0.00, 0.00, 0.00
49, 0.00, 18095.55, 0.00, -1380.11, 0.00, 0.00, -12387.02, 0.00, -0.00, -0.00, 1.00
50, 0.00, 18051.25, 0.00, -1436.64, 0.00, 0.00, -12594.29, 0.00, 0.00, 0.00, 0.00
51, 0.00, 18043.04, 0.00, -1427.45, 0.00, 0.00, -12685.55, 0.00, 0.00, 0.00, 0.00
52, 0.00, 18083.95, 0.00, -1367.57, 0.00, 0.00, -12476.79, 0.00, 0.00, 0.00, 0.00
53, 0.00, 18107.28, 0.00, -1376.98, 0.00, 0.00, -12361.39, 0.00, 0.00, 0.00, 0.00
54, 0.00, 18065.13, 0.00, -1437.35, 0.00, 0.00, -12541.70, 0.00, 0.00, 0.00, 0.00
55, 0.00, 18038.39, 0.00, -1430.98, 0.00, 0.00, -12670.71, 0.00, -0.00, -0.01, 1.00
56, 0.00, 18072.70, 0.00, -1373.20, 0.00, 0.00, -12517.22, 0.00, 0.00, 0.00, 0.00
57, 0.00, 18099.71, 0.00, -1369.04, 0.00, 0.00, -12362.26, 0.00, 0.00, 0.00, 0.00
58, 0.00, 18068.21, 0.00, -1423.94, 0.00, 0.00, -12496.28, 0.00, 0.00, 0.00, 0.00
59, 0.00, 18037.25, 0.00, -1432.90, 0.00, 0.00, -12655.92, 0.00, 0.00, 0.00, 0.00
60, 0.00, 18065.10, 0.00, -1386.72, 0.00, 0.00, -12555.80, 0.00, -0.00, -0.01, 1.01
61, 0.00, 18104.44, 0.00, -1362.50, 0.00, 0.00, -12367.80, 0.00, 0.00, 0.00, 0.00
62, 0.00, 18083.43, 0.00, -1410.75, 0.00, 0.00, -12464.11, 0.00, 0.00, 0.00, 0.00
63, 0.00, 18047.20, 0.00, -1440.28, 0.00, 0.00, -12651.82, 0.00, 0.00, 0.00, 0.00
64, 0.00, 18063.63, 0.00, -1404.85, 0.00, 0.00, -12586.98, 0.00, 0.00, 0.00, 0.00
65, 0.00, 18108.29, 0.00, -1367.70, 0.00, 0.00, -12383.76, 0.00, 0.00, -0.01, 1.01
66, 0.00, 18098.30, 0.00, -1405.16, 0.00, 0.00, -12421.74, 0.00, 0.00, 0.00, 0.00
67, 0.00, 18060.92, 0.00, -1440.44, 0.00, 0.00, -12622.83, 0.00, 0.00, 0.00, 0.00
68, 0.00, 18068.12, 0.00, -1403.40, 0.00, 0.00, -12604.86, 0.00, 0.00, 0.00, 0.00
69, 0.00, 18109.76, 0.00, -1369.13, 0.00, 0.00, -12399.21, 0.00, 0.00, 0.00, 0.00
70, 0.00, 18109.92, 0.00, -1402.37, 0.00, 0.00, -12391.58, 0.00, -0.01, -0.01, 1.01
71, 0.00, 18057.59, 0.00, -1439.39, 0.00, 0.00, -12598.76, 0.00, 0.00, 0.00, 0.00
72, 0.00, 18056.65, 0.00, -1417.15, 0.00, 0.00, -12628.20, 0.00, 0.00, 0.00, 0.00
73, 0.00, 18103.48, 0.00, -1374.39, 0.00, 0.00, -12426.79, 0.00, 0.00, 0.00, 0.00
74, 0.00, 18115.55, 0.00, -1397.19, 0.00, 0.00, -12365.52, 0.00, 0.00, 0.00, 0.00
75, 0.00, 18076.71, 0.00, -1436.37, 0.00, 0.00, -12543.28, 0.00, -0.01, -0.00, 1.01
76, 0.00, 18059.76, 0.00, -1428.43, 0.00, 0.00, -12633.00, 0.00, 0.00, 0.00, 0.00
77, 0.00, 18097.51, 0.00, -1379.75, 0.00, 0.00, -12454.55, 0.00, 0.00, 0.00, 0.00
78, 0.00, 18121.05, 0.00, -1373.18, 0.00, 0.00, -12347.57, 0.00, 0.00, 0.00, 0.00
79, 0.00, 18084.21, 0.00, -1425.64, 0.00, 0.00, -12512.89, 0.00, 0.00, 0.00, 0.00
80, 0.00, 18055.52, 0.00, -1435.05, 0.00, 0.00, -12641.14, 0.00, -0.01, -0.01, 1.02
81, 0.00, 18081.73, 0.00, -1377.60, 0.00, 0.00, -12494.71, 0.00, 0.00, 0.00, 0.00
82, 0.00, 18107.62, 0.00, -1364.48, 0.00, 0.00, -12332.06, 0.00, 0.00, 0.00, 0.00
83, 0.00, 18074.60, 0.00, -1413.90, 0.00, 0.00, -12466.44, 0.00, 0.00, 0.00, 0.00
84, 0.00, 18042.42, 0.00, -1425.68, 0.00, 0.00, -12627.53, 0.00, 0.00, 0.00, 0.00
85, 0.00, 18064.86, 0.00, -1377.45, 0.00, 0.00, -12528.38, 0.00, -0.00, -0.01, 1.02
86, 0.00, 18100.22, 0.00, -1353.02, 0.00, 0.00, -12345.83, 0.00, 0.00, 0.00, 0.00
87, 0.00, 18085.18, 0.00, -1401.32, 0.00, 0.00, -12428.13, 0.00, 0.00, 0.00, 0.00
88, 0.00, 18047.98, 0.00, -1427.58, 0.00, 0.00, -12610.54, 0.00, 0.00, 0.00, 0.00
89, 0.00, 18066.31, 0.00, -1384.47, 0.00, 0.00, -12550.19, 0.00, 0.00, 0.00, 0.00
90, 0.00, 18105.20, 0.00, -1358.90, 0.00, 0.00, -12347.57, 0.00, 0.00, 0.00, 0.00
91, 0.00, 18100.64, 0.00, -1403.18, 0.00, 0.00, -12373.79, 0.00, -0.01, -0.00, 1.01
92, 0.00, 18056.74, 0.00, -1449.04, 0.00, 0.00, -12575.00, 0.00, 0.00, 0.00, 0.00
93, 0.00, 18056.37, 0.00, -1420.74, 0.00, 0.00, -12578.87, 0.00, 0.00, 0.00, 0.00
94, 0.00, 18098.12, 0.00, -1372.73, 0.00, 0.00, -12382.11, 0.00, 0.00, 0.00, 0.00
95, 0.00, 18094.16, 0.00, -1401.25, 0.00, 0.00, -12342.34, 0.00, 0.00, 0.00, 0.00
96, 0.00, 18046.48, 0.00, -1456.37, 0.00, 0.00, -12551.69, 0.00, -0.00, -0.01, 1.02
97, 0.00, 18037.14, 0.00, -1433.33, 0.00, 0.00, -12606.76, 0.00, 0.00, 0.00, 0.00
98, 0.00, 18079.86, 0.00, -1379.46, 0.00, 0.00, -12399.79, 0.00, 0.00, 0.00, 0.00
99, 0.00, 18101.09, 0.00, -1394.66, 0.00, 0.00, -12310.27, 0.00, 0.00, 0.00, 0.00
100, 0.00, 18066.65, 0.00, -1453.91, 0.00, 0.00, -12492.26, 0.00, 0.00, 0.00, 0.00
101, 0.00, 18048.90, 0.00, -1449.42, 0.00, 0.00, -12598.65, 0.00, -0.00, -0.01, 1.02
102, 0.00, 18075.65, 0.00, -1388.16, 0.00, 0.00, -12438.52, 0.00, 0.00, 0.00, 0.00
103, 0.00, 18095.86, 0.00, -1389.65, 0.00, 0.00, -12314.83, 0.00, 0.00, 0.00, 0.00
104, 0.00, 18059.83, 0.00, -1448.15, 0.00, 0.00, -12466.04, 0.00, 0.00, 0.00, 0.00
105, 0.00, 18037.61, 0.00, -1452.75, 0.00, 0.00, -12598.72, 0.00, 0.00, 0.00, 0.00
106, 0.00, 18070.67, 0.00, -1387.62, 0.00, 0.00, -12456.83, 0.00, -0.01, -0.01, 1.02
107, 0.00, 18098.52, 0.00, -1351.92, 0.00, 0.00, -12298.11, 0.00, 0.00, 0.00, 0.00
108, 0.00, 18074.25, 0.00, -1370.63, 0.00, 0.00, -12412.01, 0.00, 0.00, 0.00, 0.00
109, 0.00, 18040.81, 0.00, -1384.06, 0.00, 0.00, -12596.35, 0.00, 0.00, 0.00, 0.00
110, 0.00, 18065.53, 0.00, -1321.68, 0.00, 0.00, -12508.59, 0.00, 0.00, 0.00, 0.00
111, 0.00, 18107.39, 0.00, -1272.19, 0.00, 0.00, -12320.53, 0.00, -0.00, -0.01, 1.02
112, 0.00, 18083.41, 0.00, -1339.79, 0.00, 0.00, -12383.31, 0.00, 0.00, 0.00, 0.00
113, 0.00, 18043.00, 0.00, -1380.42, 0.00, 0.00, -12580.66, 0.00, 0.00, 0.00, 0.00
114, 0.00, 18064.46, 0.00, -1338.58, 0.00, 0.00, -12532.71, 0.00, 0.00, 0.00, 0.00
115, 0.00, 18108.22, 0.00, -1323.11, 0.00, 0.00, -12321.20, 0.00, 0.00, 0.00, 0.00
116, 0.00, 18101.96, 0.00, -1399.33, 0.00, 0.00, -12336.84, 0.00, -0.00, -0.00, 1.02
117, 0.00, 18055.02, 0.00, -1458.36, 0.00, 0.00, -12539.31, 0.00, 0.00, 0.00, 0.00
118, 0.00, 18053.95, 0.00, -1429.08, 0.00, 0.00, -12563.20, 0.00, 0.00, 0.00, 0.00
119, 0.00, 18102.21, 0.00, -1380.02, 0.00, 0.00, -12366.93, 0.00, 0.00, 0.00, 0.00
120, 0.00, 18104.67, 0.00, -1400.27, 0.00, 0.00, -12301.97, 0.00, 0.00, 0.00, 0.00
121, 0.00, 18065.33, 0.00, -1446.47, 0.00, 0.00, -12501.80, 0.00, -0.01, 0.00, 1.01
122, 0.00, 18055.54, 0.00, -1430.69, 0.00, 0.00, -12565.97, 0.00, 0.00, 0.00, 0.00
123, 0.00, 18099.93, 0.00, -1378.10, 0.00, 0.00, -12364.98, 0.00, 0.00, 0.00, 0.00
124, 0.00, 18110.84, 0.00, -1400.49, 0.00, 0.00, -12279.67, 0.00, 0.00, 0.00, 0.00
125, 0.00, 18068.28, 0.00, -1452.55, 0.00, 0.00, -12475.54, 0.00, 0.00, 0.00, 0.00
126, 0.00, 18048.68, 0.00, -1450.20, 0.00, 0.00, -12571.56, 0.00, 0.00, 0.00, 0.00
127, 0.00, 18087.39, 0.00, -1389.09, 0.00, 0.00, -12393.68, 0.00, -0.01, 0.00, 1.01
128, 0.00, 18117.72, 0.00, -1377.60, 0.00, 0.00, -12262.88, 0.00, 0.00, 0.00, 0.00
129, 0.00, 18083.19, 0.00, -1437.84, 0.00, 0.00, -12410.05, 0.00, 0.00, 0.00, 0.00
130, 0.00, 18053.08, 0.00, -1448.64, 0.00, 0.00, -12562.04, 0.00, 0.00, 0.00, 0.00
131, 0.00, 18082.98, 0.00, -1399.17, 0.00, 0.00, -12448.85, 0.00, 0.00, 0.00, 0.00
132, 0.00, 18125.48, 0.00, -1382.32, 0.00, 0.00, -12268.22, 0.00, -0.01, -0.00, 1.01
133, 0.00, 18100.08, 0.00, -1429.57, 0.00, 0.00, -12363.33, 0.00, 0.00, 0.00, 0.00
134, 0.00, 18055.02, 0.00, -1450.76, 0.00, 0.00, -12552.38, 0.00, 0.00, 0.00, 0.00
135, 0.00, 18067.29, 0.00, -1403.64, 0.00, 0.00, -12486.89, 0.00, 0.00, 0.00, 0.00
136, 0.00, 18114.01, 0.00, -1377.56, 0.00, 0.00, -12286.04, 0.00, 0.00, 0.00, 0.00
137, 0.00, 18102.01, 0.00, -1414.95, 0.00, 0.00, -12337.09, 0.00, -0.01, 0.00, 1.02
138, 0.00, 18058.38, 0.00, -1450.90, 0.00, 0.00, -12541.54, 0.00, 0.00, 0.00, 0.00
139, 0.00, 18061.26, 0.00, -1405.86, 0.00, 0.00, -12515.50, 0.00, 0.00, 0.00, 0.00
140, 0.00, 18105.72, 0.00, -1368.69, 0.00, 0.00, -12303.79, 0.00, 0.00, 0.00, 0.00
141, 0.00, 18105.45, 0.00, -1402.82, 0.00, 0.00, -12302.15, 0.00, 0.00, 0.00, 0.00
142, 0.00, 18064.75, 0.00, -1447.21, 0.00, 0.00, -12501.40, 0.00, -0.01, -0.01, 1.02
143, 0.00, 18066.65, 0.00, -1415.92, 0.00, 0.00, -12521.83, 0.00, 0.00, 0.00, 0.00
144, 0.00, 18099.21, 0.00, -1367.93, 0.00, 0.00, -12327.37, 0.00, 0.00, 0.00, 0.00
145, 0.00, 18099.17, 0.00, -1389.23, 0.00, 0.00, -12268.40, 0.00, 0.00, 0.00, 0.00
146, 0.00, 18062.85, 0.00, -1439.32, 0.00, 0.00, -12465.48, 0.00, 0.00, 0.00, 0.00
147, 0.00, 18051.49, 0.00, -1428.50, 0.00, 0.00, -12532.22, 0.00, -0.01, -0.01, 1.02
148, 0.00, 18096.33, 0.00, -1371.97, 0.00, 0.00, -12348.38, 0.00, 0.00, 0.00, 0.00
149, 0.00, 18120.54, 0.00, -1373.98, 0.00, 0.00, -12238.05, 0.00, 0.00, 0.00, 0.00
150, 0.00, 18081.40, 0.00, -1426.42, 0.00, 0.00, -12408.08, 0.00, 0.00, 0.00, 0.00
151, 0.00, 18057.59, 0.00, -1430.09, 0.00, 0.00, -12548.09, 0.00, 0.00, 0.00, 0.00
152, 0.00, 18089.18, 0.00, -1372.89, 0.00, 0.00, -12380.76, 0.00, -0.00, -0.01, 1.02
153, 0.00, 18119.08, 0.00, -1360.71, 0.00, 0.00, -12222.78, 0.00, 0.00, 0.00, 0.00
154, 0.00, 18087.59, 0.00, -1403.00, 0.00, 0.00, -12357.54, 0.00, 0.00, 0.00, 0.00
155, 0.00, 18052.74, 0.00, -1409.99, 0.00, 0.00, -12523.53, 0.00, 0.00, 0.00, 0.00
156, 0.00, 18080.41, 0.00, -1359.10, 0.00, 0.00, -12408.35, 0.00, 0.00, 0.00, 0.00
157, 0.00, 18119.87, 0.00, -1336.97, 0.00, 0.00, -12229.64, 0.00, 0.00, 0.00, 0.00
158, 0.00, 18095.99, 0.00, -1383.39, 0.00, 0.00, -12322.56, 0.00, -0.01, -0.01, 1.02
159, 0.00, 18056.14, 0.00, -1403.38, 0.00, 0.00, -12516.89, 0.00, 0.00, 0.00, 0.00
160, 0.00, 18073.20, 0.00, -1349.53, 0.00, 0.00, -12453.52, 0.00, 0.00, 0.00, 0.00
161, 0.00, 18118.61, 0.00, -1310.97, 0.00, 0.00, -12240.40, 0.00, 0.00, 0.00, 0.00
162, 0.00, 18102.12, 0.00, -1349.91, 0.00, 0.00, -12285.23, 0.00, 0.00, 0.00, 0.00
163, 0.00, 18059.49, 0.00, -1384.44, 0.00, 0.00, -12496.10, 0.00, -0.00, -0.01, 1.01
164, 0.00, 18064.99, 0.00, -1352.10, 0.00, 0.00, -12474.78, 0.00, 0.00, 0.00, 0.00
165, 0.00, 18109.18, 0.00, -1290.23, 0.00, 0.00, -12272.05, 0.00, 0.00, 0.00, 0.00
166, 0.00, 18112.47, 0.00, -1311.53, 0.00, 0.00, -12254.46, 0.00, 0.00, 0.00, 0.00
167, 0.00, 18064.48, 0.00, -1366.50, 0.00, 0.00, -12459.17, 0.00, 0.00, 0.00, 0.00
168, 0.00, 18060.63, 0.00, -1344.73, 0.00, 0.00, -12488.23, 0.00, -0.01, -0.01, 1.01
169, 0.00, 18108.36, 0.00, -1292.42, 0.00, 0.00, -12288.88, 0.00, 0.00, 0.00, 0.00
170, 0.00, 18116.18, 0.00, -1307.60, 0.00, 0.00, -12224.28, 0.00, 0.00, 0.00, 0.00
171, 0.00, 18074.36, 0.00, -1349.82, 0.00, 0.00, -12421.02, 0.00, 0.00, 0.00, 0.00
172, 0.00, 18059.83, 0.00, -1348.86, 0.00, 0.00, -12506.16, 0.00, 0.00, 0.00, 0.00
173, 0.00, 18095.88, 0.00, -1304.20, 0.00, 0.00, -12319.57, 0.00, -0.00, -0.01, 1.01
174, 0.00, 18117.47, 0.00, -1311.62, 0.00, 0.00, -12208.10, 0.00, 0.00, 0.00, 0.00
175, 0.00, 18079.92, 0.00, -1374.16, 0.00, 0.00, -12369.37, 0.00, 0.00, 0.00, 0.00
176, 0.00, 18055.60, 0.00, -1385.43, 0.00, 0.00, -12502.43, 0.00, 0.00, 0.00, 0.00
177, 0.00, 18091.70, 0.00, -1341.57, 0.00, 0.00, -12352.07, 0.00, 0.00, 0.00, 0.00
178, 0.00, 18124.83, 0.00, -1338.47, 0.00, 0.00, -12196.32, 0.00, -0.00, -0.01, 1.01
179, 0.00, 18096.93, 0.00, -1392.49, 0.00, 0.00, -12312.73, 0.00, 0.00, 0.00, 0.00
180, 0.00, 18055.00, 0.00, -1421.10, 0.00, 0.00, -12489.35, 0.00, 0.00, 0.00, 0.00
181, 0.00, 18079.86, 0.00, -1378.61, 0.00, 0.00, -12398.85, 0.00, 0.00, 0.00, 0.00
182, 0.00, 18122.77, 0.00, -1356.51, 0.00, 0.00, -12210.74, 0.00, 0.00, 0.00, 0.00
183, 0.00, 18102.21, 0.00, -1412.09, 0.00, 0.00, -12280.52, 0.00, -0.00, -0.00, 1.01
184, 0.00, 18062.27, 0.00, -1439.92, 0.00, 0.00, -12462.71, 0.00, 0.00, 0.00, 0.00
185, 0.00, 18079.74, 0.00, -1400.34, 0.00, 0.00, -12406.31, 0.00, 0.00, 0.00, 0.00
186, 0.00, 18123.44, 0.00, -1371.26, 0.00, 0.00, -12210.62, 0.00, 0.00, 0.00, 0.00
187, 0.00, 18108.02, 0.00, -1418.84, 0.00, 0.00, -12245.34, 0.00, 0.00, 0.00, 0.00
188, 0.00, 18063.47, 0.00, -1470.95, 0.00, 0.00, -12452.36, 0.00, -0.00, -0.01, 1.01
189, 0.00, 18067.45, 0.00, -1436.90, 0.00, 0.00, -12444.24, 0.00, 0.00, 0.00, 0.00
190, 0.00, 18118.64, 0.00, -1381.90, 0.00, 0.00, -12221.96, 0.00, 0.00, 0.00, 0.00
191, 0.00, 18125.63, 0.00, -1409.05, 0.00, 0.00, -12190.98, 0.00, 0.00, 0.00, 0.00
192, 0.00, 18081.11, 0.00, -1460.78, 0.00, 0.00, -12389.73, 0.00, 0.00, 0.00, 0.00
193, 0.00, 18070.31, 0.00, -1438.98, 0.00, 0.00, -12451.80, 0.00, 0.00, 0.00, 0.00
194, 0.00, 18110.75, 0.00, -1391.37, 0.00, 0.00, -12256.67, 0.00, -0.01, -0.01, 1.02
195, 0.00, 18126.19, 0.00, -1404.67, 0.00, 0.00, -12173.12, 0.00, 0.00, 0.00, 0.00
196, 0.00, 18076.26, 0.00, -1458.38, 0.00, 0.00, -12365.36, 0.00, 0.00, 0.00, 0.00
197, 0.00, 18061.06, 0.00, -1449.49, 0.00, 0.00, -12467.51, 0.00, 0.00, 0.00, 0.00
198, 0.00, 18103.53, 0.00, -1397.95, 0.00, 0.00, -12295.49, 0.00, 0.00, 0.00, 0.00
199, 0.00, 18126.26, 0.00, -1402.82, 0.00, 0.00, -12170.48, 0.00, -0.00, 0.00, 1.02
200, 0.00, 18086.45, 0.00, -1452.91, 0.00, 0.00, -12347.24, 0.00, 0.00, 0.00, 0.00
201, 0.00, 18057.37, 0.00, -1461.33, 0.00, 0.00, -12490.91, 0.00, 0.00, 0.00, 0.00
202, 0.00, 18089.96, 0.00, -1414.31, 0.00, 0.00, -12331.55, 0.00, 0.00, 0.00, 0.00
203, 0.00, 18127.11, 0.00, -1392.09, 0.00, 0.00, -12156.46, 0.00, 0.00, 0.00, 0.00
204, 0.00, 18099.46, 0.00, -1448.33, 0.00, 0.00, -12277.70, 0.00, 0.00, -0.00, 1.01
205, 0.00, 18060.68, 0.00, -1476.47, 0.00, 0.00, -12462.75, 0.00, 0.00, 0.00, 0.00
206, 0.00, 18080.39, 0.00, -1422.73, 0.00, 0.00, -12378.46, 0.00, 0.00, 0.00, 0.00
207, 0.00, 18124.54, 0.00, -1382.25, 0.00, 0.00, -12178.71, 0.00, 0.00, 0.00, 0.00
208, 0.00, 18102.88, 0.00, -1428.77, 0.00, 0.00, -12239.52, 0.00, 0.00, 0.00, 0.00
209, 0.00, 18059.52, 0.00, -1465.98, 0.00, 0.00, -12435.33, 0.00, -0.00, -0.00, 1.02
210, 0.00, 18073.49, 0.00, -1429.82, 0.00, 0.00, -12389.12, 0.00, 0.00, 0.00, 0.00
211, 0.00, 18118.19, 0.00, -1391.64, 0.00, 0.00, -12190.78, 0.00, 0.00, 0.00, 0.00
212, 0.00, 18109.45, 0.00, -1416.85, 0.00, 0.00, -12201.06, 0.00, 0.00, 0.00, 0.00
213, 0.00, 18063.79, 0.00, -1462.23, 0.00, 0.00, -12402.69, 0.00, 0.00, 0.00, 0.00
214, 0.00, 18068.30, 0.00, -1437.19, 0.00, 0.00, -12421.45, 0.00, -0.00, -0.01, 1.02
215, 0.00, 18111.21, 0.00, -1393.77, 0.00, 0.00, -12221.24, 0.00, 0.00, 0.00, 0.00
216, 0.00, 18117.18, 0.00, -1421.19, 0.00, 0.00, -12171.40, 0.00, 0.00, 0.00, 0.00
217, 0.00, 18069.17, 0.00, -1472.00, 0.00, 0.00, -12371.24, 0.00, 0.00, 0.00, 0.00
218, 0.00, 18057.46, 0.00, -1446.87, 0.00, 0.00, -12445.54, 0.00, 0.00, 0.00, 0.00
219, 0.00, 18097.83, 0.00, -1391.66, 0.00, 0.00, -12254.01, 0.00, 0.00, -0.01, 1.02
220, 0.00, 18114.79, 0.00, -1401.88, 0.00, 0.00, -12154.48, 0.00, 0.00, 0.00, 0.00
221, 0.00, 18077.93, 0.00, -1463.06, 0.00, 0.00, -12327.17, 0.00, 0.00, 0.00, 0.00
222, 0.00, 18049.48, 0.00, -1463.86, 0.00, 0.00, -12445.72, 0.00, 0.00, 0.00, 0.00
223, 0.00, 18088.89, 0.00, -1408.58, 0.00, 0.00, -12292.32, 0.00, 0.00, 0.00, 0.00
224, 0.00, 18122.53, 0.00, -1411.76, 0.00, 0.00, -12142.79, 0.00, 0.00, 0.00, 0.00
225, 0.00, 18096.06, 0.00, -1461.89, 0.00, 0.00, -12287.69, 0.00, 0.01, -0.01, 1.02
226, 0.00, 18062.18, 0.00, -1468.31, 0.00, 0.00, -12458.17, 0.00, 0.00, 0.00, 0.00
227, 0.00, 18091.77, 0.00, -1408.85, 0.00, 0.00, -12320.93, 0.00, 0.00, 0.00, 0.00
228, 0.00, 18127.49, 0.00, -1384.58, 0.00, 0.00, -12143.41, 0.00, 0.00, 0.00, 0.00
229, 0.00, 18104.53, 0.00, -1449.20, 0.00, 0.00, -12246.57, 0.00, 0.00, 0.00, 0.00
230, 0.00, 18064.54, 0.00, -1476.31, 0.00, 0.00, -12429.51, 0.00, -0.01, -0.01, 1.02
231, 0.00, 18081.20, 0.00, -1432.05, 0.00, 0.00, -12365.10, 0.00, 0.00, 0.00, 0.00
232, 0.00, 18125.79, 0.00, -1397.81, 0.00, 0.00, -12166.48, 0.00, 0.00, 0.00, 0.00
233, 0.00, 18111.08, 0.00, -1437.26, 0.00, 0.00, -12209.42, 0.00, 0.00, 0.00, 0.00
234, 0.00, 18062.36, 0.00, -1475.93, 0.00, 0.00, -12415.39, 0.00, 0.00, 0.00, 0.00
235, 0.00, 18074.22, 0.00, -1439.09, 0.00, 0.00, -12387.65, 0.00, -0.00, -0.01, 1.02
236, 0.00, 18122.41, 0.00, -1400.56, 0.00, 0.00, -12178.10, 0.00, 0.00, 0.00, 0.00
237, 0.00, 18121.92, 0.00, -1431.67, 0.00, 0.00, -12169.16, 0.00, 0.00, 0.00, 0.00
238, 0.00, 18075.32, 0.00, -1470.66, 0.00, 0.00, -12373.39, 0.00, 0.00, 0.00, 0.00
239, 0.00, 18078.45, 0.00, -1446.20, 0.00, 0.00, -12393.30, 0.00, 0.00, 0.00, 0.00
240, 0.00, 18109.90, 0.00, -1408.65, 0.00, 0.00, -12209.77, 0.00, -0.01, -0.01, 1.02
241, 0.00, 18116.29, 0.00, -1427.38, 0.00, 0.00, -12152.75, 0.00, 0.00, 0.00, 0.00
242, 0.00, 18069.80, 0.00, -1476.20, 0.00, 0.00, -12343.08, 0.00, 0.00, 0.00, 0.00
243, 0.00, 18054.42, 0.00, -1459.88, 0.00, 0.00, -12416.89, 0.00, 0.00, 0.00, 0.00
244, 0.00, 18094.99, 0.00, -1413.73, 0.00, 0.00, -12243.48, 0.00, 0.00, 0.00, 0.00
245, 0.00, 18116.29, 0.00, -1413.73, 0.00, 0.00, -12143.30, 0.00, -0.00, -0.01, 1.02
246, 0.00, 18081.46, 0.00, -1463.91, 0.00, 0.00, -12290.64, 0.00, 0.00, 0.00, 0.00
247, 0.00, 18056.77, 0.00, -1466.65, 0.00, 0.00, -12406.47, 0.00, 0.00, 0.00, 0.00
248, 0.00, 18088.26, 0.00, -1418.15, 0.00, 0.00, -12267.24, 0.00, 0.00, 0.00, 0.00
249, 0.00, 18115.37, 0.00, -1408.41, 0.00, 0.00, -12121.28, 0.00, 0.00, 0.00, 0.00
250, 0.00, 18084.42, 0.00, -1460.93, 0.00, 0.00, -12252.78, 0.00, -0.00, -0.01, 1.03
251, 0.00, 18057.48, 0.00, -1474.46, 0.00, 0.00, -12412.53, 0.00, 0.00, 0.00, 0.00
252, 0.00, 18083.97, 0.00, -1422.17, 0.00, 0.00, -12303.83, 0.00, 0.00, 0.00, 0.00
253, 0.00, 18120.04, 0.00, -1398.62, 0.00, 0.00, -12133.80, 0.00, 0.00, 0.00, 0.00
254, 0.00, 18097.47, 0.00, -1449.40, 0.00, 0.00, -12219.12, 0.00, 0.00, 0.00, 0.00
255, 0.00, 18062.98, 0.00, -1485.88, 0.00, 0.00, -12389.04, 0.00, -0.00, -0.01, 1.02
0, 0.00, 18078.80, 0.00, -1441.42, 0.00, 0.00, -12330.03, 0.00, 0.00, 0.00, 0.00
1, 0.00, 18115.17, 0.00, -1398.86, 0.00, 0.00, -12139.12, 0.00, 0.00, 0.00, 0.00
2, 0.00, 18104.44, 0.00, -1432.81, 0.00, 0.00, -12166.10, 0.00, 0.00, 0.00, 0.00
3, 0.00, 18058.55, 0.00, -1481.97, 0.00, 0.00, -12384.39, 0.00, 0.00, 0.00, 0.00
4, 0.00, 18065.15, 0.00, -1450.09, 0.00, 0.00, -12371.58, 0.00, 0.00, 0.00, 0.00
5, 0.00, 18110.97, 0.00, -1403.69, 0.00, 0.00, -12159.17, 0.00, -0.00, -0.01, 1.01
6, 0.00, 18109.63, 0.00, -1431.99, 0.00, 0.00, -12137.49, 0.00, 0.00, 0.00, 0.00
7, 0.00, 18070.29, 0.00, -1486.57, 0.00, 0.00, -12339.59, 0.00, 0.00, 0.00, 0.00
8, 0.00, 18061.75, 0.00, -1458.07, 0.00, 0.00, -12395.29, 0.00, 0.00, 0.00, 0.00
9, 0.00, 18098.07, 0.00, -1412.67, 0.00, 0.00, -12199.85, 0.00, 0.00, 0.00, 0.00
10, 0.00, 18113.34, 0.00, -1426.91, 0.00, 0.00, -12119.07, 0.00, -0.01, -0.00, 1.02
11, 0.00, 18076.17, 0.00, -1476.02, 0.00, 0.00, -12299.99, 0.00, 0.00, 0.00, 0.00
12, 0.00, 18052.88, 0.00, -1465.38, 0.00, 0.00, -12404.48, 0.00, 0.00, 0.00, 0.00
13, 0.00, 18091.79, 0.00, -1416.52, 0.00, 0.00, -12232.24, 0.00, 0.00, 0.00, 0.00
14, 0.00, 18119.57, 0.00, -1412.67, 0.00, 0.00, -12098.24, 0.00, 0.00, 0.00, 0.00
15, 0.00, 18082.25, 0.00, -1470.25, 0.00, 0.00, -12250.19, 0.00, -0.00, -0.01, 1.01
16, 0.00, 18051.49, 0.00, -1477.92, 0.00, 0.00, -12400.05, 0.00, 0.00, 0.00, 0.00
17, 0.00, 18082.14, 0.00, -1424.39, 0.00, 0.00, -12255.71, 0.00, 0.00, 0.00, 0.00
18, 0.00, 18115.60, 0.00, -1405.43, 0.00, 0.00, -12091.87, 0.00, 0.00, 0.00, 0.00
19, 0.00, 18086.23, 0.00, -1456.35, 0.00, 0.00, -12216.97, 0.00, 0.00, 0.00, 0.00
20, 0.00, 18051.67, 0.00, -1469.78, 0.00, 0.00, -12403.56, 0.00, -0.00, -0.00, 1.01
21, 0.00, 18074.13, 0.00, -1425.19, 0.00, 0.00, -12304.84, 0.00, 0.00, 0.00, 0.00
22, 0.00, 18116.58, 0.00, -1401.52, 0.00, 0.00, -12111.36, 0.00, 0.00, 0.00, 0.00
23, 0.00, 18101.29, 0.00, -1453.62, 0.00, 0.00, -12184.99, 0.00, 0.00, 0.00, 0.00
24, 0.00, 18056.03, 0.00, -1482.79, 0.00, 0.00, -12378.37, 0.00, 0.00, 0.00, 0.00
25, 0.00, 18068.43, 0.00, -1445.49, 0.00, 0.00, -12328.13, 0.00, -0.00, 0.00, 1.01
26, 0.00, 18112.13, 0.00, -1400.67, 0.00, 0.00, -12128.15, 0.00, 0.00, 0.00, 0.00
27, 0.00, 18107.88, 0.00, -1441.64, 0.00, 0.00, -12142.38, 0.00, 0.00, 0.00, 0.00
28, 0.00, 18065.71, 0.00, -1490.35, 0.00, 0.00, -12336.91, 0.00, 0.00, 0.00, 0.00
29, 0.00, 18064.54, 0.00, -1455.59, 0.00, 0.00, -12347.75, 0.00, 0.00, 0.00, 0.00
30, 0.00, 18101.34, 0.00, -1406.08, 0.00, 0.00, -12155.91, 0.00, 0.00, -0.00, 1.00
31, 0.00, 18105.22, 0.00, -1433.89, 0.00, 0.00, -12119.94, 0.00, 0.00, 0.00, 0.00
32, 0.00, 18064.21, 0.00, -1475.93, 0.00, 0.00, -12315.52, 0.00, 0.00, 0.00, 0.00
33, 0.00, 18055.92, 0.00, -1449.60, 0.00, 0.00, -12362.10, 0.00, 0.00, 0.00, 0.00
34, 0.00, 18100.40, 0.00, -1411.76, 0.00, 0.00, -12164.60, 0.00, 0.00, 0.00, 0.00
35, 0.00, 18118.01, 0.00, -1431.03, 0.00, 0.00, -12078.19, 0.00, 0.00, 0.00, 0.00
36, 0.00, 18073.24, 0.00, -1475.89, 0.00, 0.00, -12263.55, 0.00, -0.00, -0.00, 1.01
37, 0.00, 18043.29, 0.00, -1471.53, 0.00, 0.00, -12378.19, 0.00, 0.00, 0.00, 0.00
38, 0.00, 18077.78, 0.00, -1422.73, 0.00, 0.00, -12212.68, 0.00, 0.00, 0.00, 0.00
39, 0.00, 18106.77, 0.00, -1421.97, 0.00, 0.00, -12074.19, 0.00, 0.00, 0.00, 0.00
40, 0.00, 18073.26, 0.00, -1471.68, 0.00, 0.00, -12230.52, 0.00, 0.00, 0.00, 0.00
41, 0.00, 18041.17, 0.00, -1478.90, 0.00, 0.00, -12384.41, 0.00, -0.00, -0.01, 1.01
42, 0.00, 18075.12, 0.00, -1423.49, 0.00, 0.00, -12249.60, 0.00, 0.00, 0.00, 0.00
43, 0.00, 18117.94, 0.00, -1408.09, 0.00, 0.00, -12061.67, 0.00, 0.00, 0.00, 0.00
44, 0.00, 18090.79, 0.00, -1460.15, 0.00, 0.00, -12169.54, 0.00, 0.00, 0.00, 0.00
45, 0.00, 18043.22, 0.00, -1476.38, 0.00, 0.00, -12355.35, 0.00, 0.00, 0.00, 0.00
46, 0.00, 18058.11, 0.00, -1440.50, 0.00, 0.00, -12277.23, 0.00, -0.00, -0.01, 1.02
47, 0.00, 18100.64, 0.00, -1412.50, 0.00, 0.00, -12084.51, 0.00, 0.00, 0.00, 0.00
48, 0.00, 18084.21, 0.00, -1442.72, 0.00, 0.00, -12142.34, 0.00, 0.00, 0.00, 0.00
49, 0.00, 18046.98, 0.00, -1475.86, 0.00, 0.00, -12334.90, 0.00, 0.00, 0.00, 0.00
50, 0.00, 18064.54, 0.00, -1453.24, 0.00, 0.00, -12309.24, 0.00, 0.00, 0.00, 0.00
51, 0.00, 18104.15, 0.00, -1421.70, 0.00, 0.00, -12107.65, 0.00, -0.01, -0.01, 1.01
52, 0.00, 18098.86, 0.00, -1448.01, 0.00, 0.00, -12112.30, 0.00, 0.00, 0.00, 0.00
53, 0.00, 18055.72, 0.00, -1480.40, 0.00, 0.00, -12306.78, 0.00, 0.00, 0.00, 0.00
54, 0.00, 18054.17, 0.00, -1450.32, 0.00, 0.00, -12322.63, 0.00, 0.00, 0.00, 0.00
55, 0.00, 18089.02, 0.00, -1408.56, 0.00, 0.00, -12127.92, 0.00, 0.00, 0.00, 0.00
56, 0.00, 18095.88, 0.00, -1437.06, 0.00, 0.00, -12083.11, 0.00, -0.01, -0.00, 1.01
57, 0.00, 18049.75, 0.00, -1480.56, 0.00, 0.00, -12269.74, 0.00, 0.00, 0.00, 0.00
58, 0.00, 18038.37, 0.00, -1467.12, 0.00, 0.00, -12348.76, 0.00, 0.00, 0.00, 0.00
59, 0.00, 18080.35, 0.00, -1422.62, 0.00, 0.00, -12169.74, 0.00, 0.00, 0.00, 0.00
60, 0.00, 18103.64, 0.00, -1417.53, 0.00, 0.00, -12052.82, 0.00, 0.00, 0.00, 0.00
61, 0.00, 18069.33, 0.00, -1472.73, 0.00, 0.00, -12227.39, 0.00, -0.01, -0.01, 1.02
62, 0.00, 18053.21, 0.00, -1472.35, 0.00, 0.00, -12348.13, 0.00, 0.00, 0.00, 0.00
63, 0.00, 18081.87, 0.00, -1412.88, 0.00, 0.00, -12188.72, 0.00, 0.00, 0.00, 0.00
64, 0.00, 18113.70, 0.00, -1405.12, 0.00, 0.00, -12048.82, 0.00, 0.00, 0.00, 0.00
65, 0.00, 18085.82, 0.00, -1454.67, 0.00, 0.00, -12183.73, 0.00, 0.00, 0.00, 0.00
66, 0.00, 18049.99, 0.00, -1472.73, 0.00, 0.00, -12342.50, 0.00, -0.01, -0.01, 1.01
67, 0.00, 18077.35, 0.00, -1419.05, 0.00, 0.00, -12232.48, 0.00, 0.00, 0.00, 0.00
68, 0.00, 18115.31, 0.00, -1390.43, 0.00, 0.00, -12048.98, 0.00, 0.00, 0.00, 0.00
69, 0.00, 18093.67, 0.00, -1437.26, 0.00, 0.00, -12137.22, 0.00, 0.00, 0.00, 0.00
70, 0.00, 18054.06, 0.00, -1470.61, 0.00, 0.00, -12324.77, 0.00, 0.00, 0.00, 0.00
71, 0.00, 18075.27, 0.00, -1439.05, 0.00, 0.00, -12255.24, 0.00, 0.00, 0.00, 0.00
72, 0.00, 18112.29, 0.00, -1412.16, 0.00, 0.00, -12059.44, 0.00, -0.01, -0.02, 1.01
73, 0.00, 18099.97, 0.00, -1453.42, 0.00, 0.00, -12108.12, 0.00, 0.00, 0.00, 0.00
74, 0.00, 18052.41, 0.00, -1495.40, 0.00, 0.00, -12303.76, 0.00, 0.00, 0.00, 0.00
75, 0.00, 18051.13, 0.00, -1458.85, 0.00, 0.00, -12282.86, 0.00, 0.00, 0.00, 0.00
76, 0.00, 18098.25, 0.00, -1418.51, 0.00, 0.00, -12069.63, 0.00, 0.00, 0.00, 0.00
77, 0.00, 18101.52, 0.00, -1446.74, 0.00, 0.00, -12054.63, 0.00, -0.01, -0.01, 1.01
78, 0.00, 18060.63, 0.00, -1496.16, 0.00, 0.00, -12255.28, 0.00, 0.00, 0.00, 0.00
79, 0.00, 18054.55, 0.00, -1471.55, 0.00, 0.00, -12306.29, 0.00, 0.00, 0.00, 0.00
80, 0.00, 18092.02, 0.00, -1423.72, 0.00, 0.00, -12113.35, 0.00, 0.00, 0.00, 0.00
81, 0.00, 18108.76, 0.00, -1438.45, 0.00, 0.00, -12034.56, 0.00, 0.00, 0.00, 0.00
82, 0.00, 18064.99, 0.00, -1487.11, 0.00, 0.00, -12218.02, 0.00, -0.01, -0.01, 1.01
83, 0.00, 18046.48, 0.00, -1479.95, 0.00, 0.00, -12310.11, 0.00, 0.00, 0.00, 0.00
84, 0.00, 18091.14, 0.00, -1432.81, 0.00, 0.00, -12131.03, 0.00, 0.00, 0.00, 0.00
85, 0.00, 18113.03, 0.00, -1433.95, 0.00, 0.00, -12011.27, 0.00, 0.00, 0.00, 0.00
86, 0.00, 18069.31, 0.00, -1484.98, 0.00, 0.00, -12188.07, 0.00, 0.00, 0.00, 0.00
87, 0.00, 18043.87, 0.00, -1474.39, 0.00, 0.00, -12321.29, 0.00, -0.01, -0.01, 1.01
88, 0.00, 18081.64, 0.00, -1389.99, 0.00, 0.00, -12174.08, 0.00, 0.00, 0.00, 0.00
89, 0.00, 18115.60, 0.00, -1362.00, 0.00, 0.00, -12020.81, 0.00, 0.00, 0.00, 0.00
90, 0.00, 18080.48, 0.00, -1397.03, 0.00, 0.00, -12145.76, 0.00, 0.00, 0.00, 0.00
91, 0.00, 18045.99, 0.00, -1394.26, 0.00, 0.00, -12320.84, 0.00, 0.00, 0.00, 0.00
92, 0.00, 18069.46, 0.00, -1350.11, 0.00, 0.00, -12218.89, 0.00, -0.01, -0.01, 1.01
93, 0.00, 18106.95, 0.00, -1350.05, 0.00, 0.00, -12044.33, 0.00, 0.00, 0.00, 0.00
94, 0.00, 18089.78, 0.00, -1389.88, 0.00, 0.00, -12111.74, 0.00, 0.00, 0.00, 0.00
95, 0.00, 18051.02, 0.00, -1428.03, 0.00, 0.00, -12300.19, 0.00, 0.00, 0.00, 0.00
96, 0.00, 18066.31, 0.00, -1416.45, 0.00, 0.00, -12247.62, 0.00, 0.00, 0.00, 0.00
97, 0.00, 18107.08, 0.00, -1414.51, 0.00, 0.00, -12034.16, 0.00, -0.00, -0.01, 1.01
98, 0.00, 18099.91, 0.00, -1458.47, 0.00, 0.00, -12044.13, 0.00, 0.00, 0.00, 0.00
99, 0.00, 18053.19, 0.00, -1489.27, 0.00, 0.00, -12251.71, 0.00, 0.00, 0.00, 0.00
100, 0.00, 18051.67, 0.00, -1468.20, 0.00, 0.00, -12255.93, 0.00, 0.00, 0.00, 0.00
101, 0.00, 18101.31, 0.00, -1424.74, 0.00, 0.00, -12053.47, 0.00, 0.00, 0.00, 0.00
102, 0.00, 18105.78, 0.00, -1444.12, 0.00, 0.00, -12038.83, 0.00, -0.00, -0.01, 1.02
103, 0.00, 18063.20, 0.00, -1488.20, 0.00, 0.00, -12234.07, 0.00, 0.00, 0.00, 0.00
104, 0.00, 18050.02, 0.00, -1471.39, 0.00, 0.00, -12288.45, 0.00, 0.00, 0.00, 0.00
105, 0.00, 18090.16, 0.00, -1413.64, 0.00, 0.00, -12092.03, 0.00, 0.00, 0.00, 0.00
106, 0.00, 18113.43, 0.00, -1429.55, 0.00, 0.00, -12012.48, 0.00, 0.00, 0.00, 0.00
107, 0.00, 18073.42, 0.00, -1490.97, 0.00, 0.00, -12190.66, 0.00, 0.00, 0.00, 0.00
108, 0.00, 18043.78, 0.00, -1481.90, 0.00, 0.00, -12283.94, 0.00, -0.00, -0.00, 1.01
109, 0.00, 18078.18, 0.00, -1421.73, 0.00, 0.00, -12111.11, 0.00, 0.00, 0.00, 0.00
110, 0.00, 18099.12, 0.00, -1422.89, 0.00, 0.00, -11987.15, 0.00, 0.00, 0.00, 0.00
111, 0.00, 18057.77, 0.00, -1475.86, 0.00, 0.00, -12146.18, 0.00, 0.00, 0.00, 0.00
112, 0.00, 18026.81, 0.00, -1483.55, 0.00, 0.00, -12289.91, 0.00, 0.00, 0.00, 0.00
113, 0.00, 18062.85, 0.00, -1431.16, 0.00, 0.00, -12147.70, 0.00, 0.00, -0.00, 1.02
114, 0.00, 18100.82, 0.00, -1414.78, 0.00, 0.00, -11992.38, 0.00, 0.00, 0.00, 0.00
115, 0.00, 18077.22, 0.00, -1466.39, 0.00, 0.00, -12107.18, 0.00, 0.00, 0.00, 0.00
116, 0.00, 18037.39, 0.00, -1481.85, 0.00, 0.00, -12283.04, 0.00, 0.00, 0.00, 0.00
117, 0.00, 18065.95, 0.00, -1439.07, 0.00, 0.00, -12188.16, 0.00, 0.00, 0.00, 0.00
118, 0.00, 18108.67, 0.00, -1410.89, 0.00, 0.00, -11995.71, 0.00, 0.00, -0.01, 1.02
119, 0.00, 18088.17, 0.00, -1456.60, 0.00, 0.00, -12063.10, 0.00, 0.00, 0.00, 0.00
120, 0.00, 18044.25, 0.00, -1489.92, 0.00, 0.00, -12260.24, 0.00, 0.00, 0.00, 0.00
121, 0.00, 18056.72, 0.00, -1439.72, 0.00, 0.00, -12225.22, 0.00, 0.00, 0.00, 0.00
122, 0.00, 18102.21, 0.00, -1397.45, 0.00, 0.00, -12015.36, 0.00, 0.00, 0.00, 0.00
123, 0.00, 18096.93, 0.00, -1436.64, 0.00, 0.00, -12029.53, 0.00, -0.00, -0.01, 1.02
124, 0.00, 18053.37, 0.00, -1477.94, 0.00, 0.00, -12225.24, 0.00, 0.00, 0.00, 0.00
125, 0.00, 18056.77, 0.00, -1445.62, 0.00, 0.00, -12239.52, 0.00, 0.00, 0.00, 0.00
126, 0.00, 18106.72, 0.00, -1402.08, 0.00, 0.00, -12038.54, 0.00, 0.00, 0.00, 0.00
127, 0.00, 18114.05, 0.00, -1431.05, 0.00, 0.00, -11985.88, 0.00, 0.00, 0.00, 0.00
128, 0.00, 18062.18, 0.00, -1479.46, 0.00, 0.00, -12188.00, 0.00, -0.01, -0.01, 1.03
129, 0.00, 18048.74, 0.00, -1459.81, 0.00, 0.00, -12257.94, 0.00, 0.00, 0.00, 0.00
130, 0.00, 18087.79, 0.00, -1403.94, 0.00, 0.00, -12072.65, 0.00, 0.00, 0.00, 0.00
131, 0.00, 18104.33, 0.00, -1399.98, 0.00, 0.00, -11981.50, 0.00, 0.00, 0.00, 0.00
132, 0.00, 18065.53, 0.00, -1452.17, 0.00, 0.00, -12154.77, 0.00, 0.00, 0.00, 0.00
133, 0.00, 18047.60, 0.00, -1443.45, 0.00, 0.00, -12264.87, 0.00, -0.01, -0.01, 1.02
134, 0.00, 18084.04, 0.00, -1397.65, 0.00, 0.00, -12107.69, 0.00, 0.00, 0.00, 0.00
135, 0.00, 18108.02, 0.00, -1394.39, 0.00, 0.00, -11972.35, 0.00, 0.00, 0.00, 0.00
136, 0.00, 18069.71, 0.00, -1445.82, 0.00, 0.00, -12123.38, 0.00, 0.00, 0.00, 0.00
137, 0.00, 18045.52, 0.00, -1447.59, 0.00, 0.00, -12277.61, 0.00, 0.00, 0.00, 0.00
138, 0.00, 18076.39, 0.00, -1388.29, 0.00, 0.00, -12145.54, 0.00, 0.00, 0.00, 0.00
139, 0.00, 18114.66, 0.00, -1363.32, 0.00, 0.00, -11968.11, 0.00, -0.01, -0.01, 1.01
140, 0.00, 18088.06, 0.00, -1405.41, 0.00, 0.00, -12070.88, 0.00, 0.00, 0.00, 0.00
141, 0.00, 18044.92, 0.00, -1418.84, 0.00, 0.00, -12261.05, 0.00, 0.00, 0.00, 0.00
142, 0.00, 18067.05, 0.00, -1376.33, 0.00, 0.00, -12178.66, 0.00, 0.00, 0.00, 0.00
143, 0.00, 18110.08, 0.00, -1342.04, 0.00, 0.00, -11974.79, 0.00, 0.00, 0.00, 0.00
144, 0.00, 18098.52, 0.00, -1373.89, 0.00, 0.00, -12026.74, 0.00, -0.02, -0.00, 1.01
145, 0.00, 18059.63, 0.00, -1405.01, 0.00, 0.00, -12222.11, 0.00, 0.00, 0.00, 0.00
146, 0.00, 18064.66, 0.00, -1358.83, 0.00, 0.00, -12205.33, 0.00, 0.00, 0.00, 0.00
147, 0.00, 18113.32, 0.00, -1324.79, 0.00, 0.00, -11993.79, 0.00, 0.00, 0.00, 0.00
148, 0.00, 18106.43, 0.00, -1356.37, 0.00, 0.00, -11988.54, 0.00, 0.00, 0.00, 0.00
149, 0.00, 18065.28, 0.00, -1404.47, 0.00, 0.00, -12193.99, 0.00, -0.01, -0.01, 1.01
150, 0.00, 18064.75, 0.00, -1377.14, 0.00, 0.00, -12211.72, 0.00, 0.00, 0.00, 0.00
151, 0.00, 18100.80, 0.00, -1321.41, 0.00, 0.00, -12020.66, 0.00, 0.00, 0.00, 0.00
152, 0.00, 18110.10, 0.00, -1340.37, 0.00, 0.00, -11978.88, 0.00, 0.00, 0.00, 0.00
153, 0.00, 18069.44, 0.00, -1392.71, 0.00, 0.00, -12168.18, 0.00, 0.00, 0.00, 0.00
154, 0.00, 18057.88, 0.00, -1389.29, 0.00, 0.00, -12238.63, 0.00, -0.01, -0.01, 1.02
155, 0.00, 18097.45, 0.00, -1341.55, 0.00, 0.00, -12045.65, 0.00, 0.00, 0.00, 0.00
156, 0.00, 18115.87, 0.00, -1354.90, 0.00, 0.00, -11944.48, 0.00, 0.00, 0.00, 0.00
157, 0.00, 18072.90, 0.00, -1420.05, 0.00, 0.00, -12104.61, 0.00, 0.00, 0.00, 0.00
158, 0.00, 18044.32, 0.00, -1428.97, 0.00, 0.00, -12240.40, 0.00, 0.00, 0.00, 0.00
159, 0.00, 18070.92, 0.00, -1384.58, 0.00, 0.00, -12101.35, 0.00, -0.01, -0.01, 1.01
160, 0.00, 18104.29, 0.00, -1390.08, 0.00, 0.00, -11941.78, 0.00, 0.00, 0.00, 0.00
161, 0.00, 18069.02, 0.00, -1444.35, 0.00, 0.00, -12080.02, 0.00, 0.00, 0.00, 0.00
162, 0.00, 18040.52, 0.00, -1457.24, 0.00, 0.00, -12244.13, 0.00, 0.00, 0.00, 0.00
163, 0.00, 18067.94, 0.00, -1419.27, 0.00, 0.00, -12125.91, 0.00, 0.00, 0.00, 0.00
164, 0.00, 18100.38, 0.00, -1401.25, 0.00, 0.00, -11939.92, 0.00, -0.01, -0.00, 1.01
165, 0.00, 18068.05, 0.00, -1449.15, 0.00, 0.00, -12030.65, 0.00, 0.00, 0.00, 0.00
166, 0.00, 18028.38, 0.00, -1480.56, 0.00, 0.00, -12227.88, 0.00, 0.00, 0.00, 0.00
167, 0.00, 18051.85, 0.00, -1451.84, 0.00, 0.00, -12149.09, 0.00, 0.00, 0.00, 0.00
168, 0.00, 18096.64, 0.00, -1423.94, 0.00, 0.00, -11935.54, 0.00, 0.00, 0.00, 0.00
169, 0.00, 18080.48, 0.00, -1451.41, 0.00, 0.00, -11987.78, 0.00, -0.01, -0.00, 1.02
170, 0.00, 18035.24, 0.00, -1488.78, 0.00, 0.00, -12201.53, 0.00, 0.00, 0.00, 0.00
171, 0.00, 18040.09, 0.00, -1459.99, 0.00, 0.00, -12190.17, 0.00, 0.00, 0.00, 0.00
172, 0.00, 18090.12, 0.00, -1414.93, 0.00, 0.00, -11973.47, 0.00, 0.00, 0.00, 0.00
173, 0.00, 18096.84, 0.00, -1446.81, 0.00, 0.00, -11945.98, 0.00, 0.00, 0.00, 0.00
174, 0.00, 18049.57, 0.00, -1495.24, 0.00, 0.00, -12161.56, 0.00, 0.00, 0.00, 0.00
175, 0.00, 18041.39, 0.00, -1478.12, 0.00, 0.00, -12201.77, 0.00, -0.01, -0.01, 1.02
176, 0.00, 18089.87, 0.00, -1426.35, 0.00, 0.00, -12003.22, 0.00, 0.00, 0.00, 0.00
177, 0.00, 18100.73, 0.00, -1444.01, 0.00, 0.00, -11930.49, 0.00, 0.00, 0.00, 0.00
178, 0.00, 18058.58, 0.00, -1495.15, 0.00, 0.00, -12113.86, 0.00, 0.00, 0.00, 0.00
179, 0.00, 18042.84, 0.00, -1486.06, 0.00, 0.00, -12205.75, 0.00, 0.00, 0.00, 0.00
180, 0.00, 18085.40, 0.00, -1438.07, 0.00, 0.00, -12028.68, 0.00, -0.00, -0.00, 1.01
181, 0.00, 18106.86, 0.00, -1437.49, 0.00, 0.00, -11904.83, 0.00, 0.00, 0.00, 0.00
182, 0.00, 18066.80, 0.00, -1487.96, 0.00, 0.00, -12066.41, 0.00, 0.00, 0.00, 0.00
183, 0.00, 18042.86, 0.00, -1495.82, 0.00, 0.00, -12210.67, 0.00, 0.00, 0.00, 0.00
184, 0.00, 18072.75, 0.00, -1436.93, 0.00, 0.00, -12079.62, 0.00, 0.00, 0.00, 0.00
185, 0.00, 18102.88, 0.00, -1418.62, 0.00, 0.00, -11903.44, 0.00, -0.01, -0.01, 1.00
186, 0.00, 18072.50, 0.00, -1469.20, 0.00, 0.00, -12023.05, 0.00, 0.00, 0.00, 0.00
187, 0.00, 18036.36, 0.00, -1496.00, 0.00, 0.00, -12189.57, 0.00, 0.00, 0.00, 0.00
188, 0.00, 18061.15, 0.00, -1446.58, 0.00, 0.00, -12095.36, 0.00, 0.00, 0.00, 0.00
189, 0.00, 18102.65, 0.00, -1422.78, 0.00, 0.00, -11913.99, 0.00, 0.00, 0.00, 0.00
190, 0.00, 18078.34, 0.00, -1470.21, 0.00, 0.00, -11992.90, 0.00, -0.00, -0.01, 1.01
191, 0.00, 18029.77, 0.00, -1504.52, 0.00, 0.00, -12191.47, 0.00, 0.00, 0.00, 0.00
192, 0.00, 18048.94, 0.00, -1465.87, 0.00, 0.00, -12138.87, 0.00, 0.00, 0.00, 0.00
193, 0.00, 18096.93, 0.00, -1418.37, 0.00, 0.00, -11933.42, 0.00, 0.00, 0.00, 0.00
194, 0.00, 18091.19, 0.00, -1447.68, 0.00, 0.00, -11959.79, 0.00, 0.00, 0.00, 0.00
195, 0.00, 18047.24, 0.00, -1492.11, 0.00, 0.00, -12161.94, 0.00, 0.00, -0.01, 1.00
196, 0.00, 18048.52, 0.00, -1470.52, 0.00, 0.00, -12157.09, 0.00, 0.00, 0.00, 0.00
197, 0.00, 18095.05, 0.00, -1420.88, 0.00, 0.00, -11945.29, 0.00, 0.00, 0.00, 0.00
198, 0.00, 18096.46, 0.00, -1444.50, 0.00, 0.00, -11918.35, 0.00, 0.00, 0.00, 0.00
199, 0.00, 18050.46, 0.00, -1489.61, 0.00, 0.00, -12127.03, 0.00, 0.00, 0.00, 0.00
200, 0.00, 18045.19, 0.00, -1474.57, 0.00, 0.00, -12183.56, 0.00, 0.00, -0.01, 1.02
201, 0.00, 18093.42, 0.00, -1424.50, 0.00, 0.00, -11988.56, 0.00, 0.00, 0.00, 0.00
202, 0.00, 18101.29, 0.00, -1440.21, 0.00, 0.00, -11910.82, 0.00, 0.00, 0.00, 0.00
203, 0.00, 18058.11, 0.00, -1501.59, 0.00, 0.00, -12088.54, 0.00, 0.00, 0.00, 0.00
204, 0.00, 18043.51, 0.00, -1493.74, 0.00, 0.00, -12187.65, 0.00, 0.00, 0.00, 0.00
205, 0.00, 18080.39, 0.00, -1433.77, 0.00, 0.00, -12028.70, 0.00, 0.00, 0.00, 0.00
206, 0.00, 18104.22, 0.00, -1434.18, 0.00, 0.00, -11895.93, 0.00, -0.00, -0.01, 1.02
207, 0.00, 18066.67, 0.00, -1487.49, 0.00, 0.00, -12056.33, 0.00, 0.00, 0.00, 0.00
208, 0.00, 18044.32, 0.00, -1500.18, 0.00, 0.00, -12184.94, 0.00, 0.00, 0.00, 0.00
209, 0.00, 18081.53, 0.00, -1446.07, 0.00, 0.00, -12050.61, 0.00, 0.00, 0.00, 0.00
210, 0.00, 18111.26, 0.00, -1426.89, 0.00, 0.00, -11882.90, 0.00, 0.00, 0.00, 0.00
211, 0.00, 18076.06, 0.00, -1476.87, 0.00, 0.00, -11992.76, 0.00, -0.00, -0.01, 1.01
212, 0.00, 18041.12, 0.00, -1504.36, 0.00, 0.00, -12175.91, 0.00, 0.00, 0.00, 0.00
213, 0.00, 18056.16, 0.00, -1458.00, 0.00, 0.00, -12098.80, 0.00, 0.00, 0.00, 0.00
214, 0.00, 18095.84, 0.00, -1432.28, 0.00, 0.00, -11906.97, 0.00, 0.00, 0.00, 0.00
215, 0.00, 18082.00, 0.00, -1469.98, 0.00, 0.00, -11954.29, 0.00, 0.00, 0.00, 0.00
216, 0.00, 18052.12, 0.00, -1506.80, 0.00, 0.00, -12154.25, 0.00, 0.00, -0.01, 1.02
217, 0.00, 18064.77, 0.00, -1470.72, 0.00, 0.00, -12114.53, 0.00, 0.00, 0.00, 0.00
218, 0.00, 18089.67, 0.00, -1429.80, 0.00, 0.00, -11917.53, 0.00, 0.00, 0.00, 0.00
219, 0.00, 18083.01, 0.00, -1459.93, 0.00, 0.00, -11912.81, 0.00, 0.00, 0.00, 0.00
220, 0.00, 18036.34, 0.00, -1506.84, 0.00, 0.00, -12119.21, 0.00, 0.00, 0.00, 0.00
221, 0.00, 18030.68, 0.00, -1476.00, 0.00, 0.00, -12148.42, 0.00, -0.00, -0.01, 1.02
222, 0.00, 18074.38, 0.00, -1430.44, 0.00, 0.00, -11945.91, 0.00, 0.00, 0.00, 0.00
223, 0.00, 18084.86, 0.00, -1451.12, 0.00, 0.00, -11890.19, 0.00, 0.00, 0.00, 0.00
224, 0.00, 18040.29, 0.00, -1504.29, 0.00, 0.00, -12087.42, 0.00, 0.00, 0.00, 0.00
225, 0.00, 18031.62, 0.00, -1491.67, 0.00, 0.00, -12161.56, 0.00, 0.00, 0.00, 0.00
226, 0.00, 18068.95, 0.00, -1438.96, 0.00, 0.00, -11975.48, 0.00, 0.00, -0.01, 1.01
227, 0.00, 18090.65, 0.00, -1444.46, 0.00, 0.00, -11882.46, 0.00, 0.00, 0.00, 0.00
228, 0.00, 18049.75, 0.00, -1492.22, 0.00, 0.00, -12061.72, 0.00, 0.00, 0.00, 0.00
229, 0.00, 18033.01, 0.00, -1490.26, 0.00, 0.00, -12152.26, 0.00, 0.00, 0.00, 0.00
230, 0.00, 18078.89, 0.00, -1438.89, 0.00, 0.00, -11986.14, 0.00, 0.00, 0.00, 0.00
231, 0.00, 18100.64, 0.00, -1440.08, 0.00, 0.00, -11849.58, 0.00, -0.00, -0.01, 1.02
232, 0.00, 18053.62, 0.00, -1500.36, 0.00, 0.00, -11996.14, 0.00, 0.00, 0.00, 0.00
233, 0.00, 18020.78, 0.00, -1509.21, 0.00, 0.00, -12154.16, 0.00, 0.00, 0.00, 0.00
234, 0.00, 18047.85, 0.00, -1455.41, 0.00, 0.00, -12044.62, 0.00, 0.00, 0.00, 0.00
235, 0.00, 18084.88, 0.00, -1432.28, 0.00, 0.00, -11867.75, 0.00, 0.00, 0.00, 0.00
236, 0.00, 18059.83, 0.00, -1487.98, 0.00, 0.00, -11956.66, 0.00, 0.00, -0.01, 1.01
237, 0.00, 18025.52, 0.00, -1506.46, 0.00, 0.00, -12146.07, 0.00, 0.00, 0.00, 0.00
238, 0.00, 18041.08, 0.00, -1460.60, 0.00, 0.00, -12080.78, 0.00, 0.00, 0.00, 0.00
239, 0.00, 18082.92, 0.00, -1430.74, 0.00, 0.00, -11882.05, 0.00, 0.00, 0.00, 0.00
240, 0.00, 18072.30, 0.00, -1478.10, 0.00, 0.00, -11927.65, 0.00, 0.00, 0.00, 0.00
241, 0.00, 18030.46, 0.00, -1517.46, 0.00, 0.00, -12127.01, 0.00, 0.00, 0.00, 0.00
242, 0.00, 18035.80, 0.00, -1480.18, 0.00, 0.00, -12107.87, 0.00, 0.00, -0.01, 1.01
243, 0.00, 18080.19, 0.00, -1434.69, 0.00, 0.00, -11909.55, 0.00, 0.00, 0.00, 0.00
244, 0.00, 18079.70, 0.00, -1466.56, 0.00, 0.00, -11905.28, 0.00, 0.00, 0.00, 0.00
245, 0.00, 18036.58, 0.00, -1515.36, 0.00, 0.00, -12102.06, 0.00, 0.00, 0.00, 0.00
246, 0.00, 18030.44, 0.00, -1485.81, 0.00, 0.00, -12117.80, 0.00, 0.00, 0.00, 0.00
247, 0.00, 18080.15, 0.00, -1429.13, 0.00, 0.00, -11912.38, 0.00, -0.01, -0.01, 1.02
248, 0.00, 18097.67, 0.00, -1449.64, 0.00, 0.00, -11866.34, 0.00, 0.00, 0.00, 0.00
249, 0.00, 18048.77, 0.00, -1506.49, 0.00, 0.00, -12053.89, 0.00, 0.00, 0.00, 0.00
250, 0.00, 18030.73, 0.00, -1494.59, 0.00, 0.00, -12138.27, 0.00, 0.00, 0.00, 0.00
251, 0.00, 18071.52, 0.00, -1443.77, 0.00, 0.00, -11968.06, 0.00, 0.00, 0.00, 0.00
252, 0.00, 18093.94, 0.00, -1448.08, 0.00, 0.00, -11847.63, 0.00, -0.01, -0.01, 1.01
253, 0.00, 18048.92, 0.00, -1498.51, 0.00, 0.00, -12022.20, 0.00, 0.00, 0.00, 0.00
254, 0.00, 18021.18, 0.00, -1506.37, 0.00, 0.00, -12150.18, 0.00, 0.00, 0.00, 0.00
255, 0.00, 18058.55, 0.00, -1450.61, 0.00, 0.00, -11985.54, 0.00, 0.00, 0.00, 0.00
0, 0.00, 18093.09, 0.00, -1437.89, 0.00, 0.00, -11829.97, 0.00, 0.00, 0.00, 0.00
1, 0.00, 18058.44, 0.00, -1493.88, 0.00, 0.00, -11968.00, 0.00, -0.00, -0.00, 1.02
2, 0.00, 18022.46, 0.00, -1510.28, 0.00, 0.00, -12135.19, 0.00, 0.00, 0.00, 0.00
3, 0.00, 18053.46, 0.00, -1466.74, 0.00, 0.00, -12025.13, 0.00, 0.00, 0.00, 0.00
4, 0.00, 18089.67, 0.00, -1446.96, 0.00, 0.00, -11841.48, 0.00, 0.00, 0.00, 0.00
5, 0.00, 18068.70, 0.00, -1488.80, 0.00, 0.00, -11922.89, 0.00, 0.00, 0.00, 0.00
6, 0.00, 18028.85, 0.00, -1509.91, 0.00, 0.00, -12116.41, 0.00, -0.00, -0.00, 1.02
7, 0.00, 18044.12, 0.00, -1467.03, 0.00, 0.00, -12070.57, 0.00, 0.00, 0.00, 0.00
8, 0.00, 18092.89, 0.00, -1434.91, 0.00, 0.00, -11870.72, 0.00, 0.00, 0.00, 0.00
9, 0.00, 18082.70, 0.00, -1480.24, 0.00, 0.00, -11891.46, 0.00, 0.00, 0.00, 0.00
10, 0.00, 18036.47, 0.00, -1515.74, 0.00, 0.00, -12097.43, 0.00, 0.00, 0.00, 0.00
11, 0.00, 18045.70, 0.00, -1479.53, 0.00, 0.00, -12083.71, 0.00, -0.00, 0.00, 1.02
12, 0.00, 18093.98, 0.00, -1439.83, 0.00, 0.00, -11868.35, 0.00, 0.00, 0.00, 0.00
13, 0.00, 18093.94, 0.00, -1470.95, 0.00, 0.00, -11851.97, 0.00, 0.00, 0.00, 0.00
14, 0.00, 18041.57, 0.00, -1513.37, 0.00, 0.00, -12060.98, 0.00, 0.00, 0.00, 0.00
15, 0.00, 18032.02, 0.00, -1482.79, 0.00, 0.00, -12115.56, 0.00, 0.00, 0.00, 0.00
16, 0.00, 18077.80, 0.00, -1438.09, 0.00, 0.00, -11918.31, 0.00, -0.00, -0.00, 1.02
17, 0.00, 18087.17, 0.00, -1464.60, 0.00, 0.00, -11847.90, 0.00, 0.00, 0.00, 0.00
18, 0.00, 18050.40, 0.00, -1514.53, 0.00, 0.00, -12019.25, 0.00, 0.00, 0.00, 0.00
19, 0.00, 18032.58, 0.00, -1504.27, 0.00, 0.00, -12116.59, 0.00, 0.00, 0.00, 0.00
20, 0.00, 18074.38, 0.00, -1451.19, 0.00, 0.00, -11945.60, 0.00, 0.00, 0.00, 0.00
21, 0.00, 18099.19, 0.00, -1452.46, 0.00, 0.00, -11813.05, 0.00, 0.00, 0.00, 0.00
22, 0.00, 18063.92, 0.00, -1496.14, 0.00, 0.00, -11972.76, 0.00, -0.01, -0.00, 1.02
23, 0.00, 18032.29, 0.00, -1500.67, 0.00, 0.00, -12110.78, 0.00, 0.00, 0.00, 0.00
24, 0.00, 18059.07, 0.00, -1455.05, 0.00, 0.00, -11994.35, 0.00, 0.00, 0.00, 0.00
25, 0.00, 18095.59, 0.00, -1447.34, 0.00, 0.00, -11812.61, 0.00, 0.00, 0.00, 0.00
26, 0.00, 18065.21, 0.00, -1492.36, 0.00, 0.00, -11922.22, 0.00, 0.00, 0.00, 0.00
27, 0.00, 18028.18, 0.00, -1508.32, 0.00, 0.00, -12102.89, 0.00, -0.00, -0.01, 1.01
28, 0.00, 18054.67, 0.00, -1457.60, 0.00, 0.00, -12012.10, 0.00, 0.00, 0.00, 0.00
29, 0.00, 18097.34, 0.00, -1433.42, 0.00, 0.00, -11828.21, 0.00, 0.00, 0.00, 0.00
30, 0.00, 18078.96, 0.00, -1481.61, 0.00, 0.00, -11889.27, 0.00, 0.00, 0.00, 0.00
31, 0.00, 18033.83, 0.00, -1511.67, 0.00, 0.00, -12085.90, 0.00, 0.00, 0.00, 0.00
32, 0.00, 18049.55, 0.00, -1475.64, 0.00, 0.00, -12049.45, 0.00, -0.00, -0.01, 1.01
33, 0.00, 18097.20, 0.00, -1438.94, 0.00, 0.00, -11836.72, 0.00, 0.00, 0.00, 0.00
34, 0.00, 18087.99, 0.00, -1468.71, 0.00, 0.00, -11846.02, 0.00, 0.00, 0.00, 0.00
35, 0.00, 18041.61, 0.00, -1504.59, 0.00, 0.00, -12048.62, 0.00, 0.00, 0.00, 0.00
36, 0.00, 18037.23, 0.00, -1469.85, 0.00, 0.00, -12064.49, 0.00, 0.00, 0.00, 0.00
37, 0.00, 18078.63, 0.00, -1425.06, 0.00, 0.00, -11864.53, 0.00, -0.01, -0.01, 1.01
38, 0.00, 18077.73, 0.00, -1440.59, 0.00, 0.00, -11833.93, 0.00, 0.00, 0.00, 0.00
39, 0.00, 18035.09, 0.00, -1489.21, 0.00, 0.00, -12021.89, 0.00, 0.00, 0.00, 0.00
40, 0.00, 18025.03, 0.00, -1478.95, 0.00, 0.00, -12090.80, 0.00, 0.00, 0.00, 0.00
41, 0.00, 18067.76, 0.00, -1445.33, 0.00, 0.00, -11898.37, 0.00, 0.00, 0.00, 0.00
42, 0.00, 18084.44, 0.00, -1451.54, 0.00, 0.00, -11808.34, 0.00, -0.01, -0.01, 1.02
43, 0.00, 18042.17, 0.00, -1509.61, 0.00, 0.00, -11988.80, 0.00, 0.00, 0.00, 0.00
44, 0.00, 18022.35, 0.00, -1521.42, 0.00, 0.00, -12087.17, 0.00, 0.00, 0.00, 0.00
45, 0.00, 18063.65, 0.00, -1460.28, 0.00, 0.00, -11914.02, 0.00, 0.00, 0.00, 0.00
46, 0.00, 18086.90, 0.00, -1462.18, 0.00, 0.00, -11781.63, 0.00, 0.00, 0.00, 0.00
47, 0.00, 18042.62, 0.00, -1511.00, 0.00, 0.00, -11939.41, 0.00, -0.00, -0.01, 1.01
48, 0.00, 18013.79, 0.00, -1517.97, 0.00, 0.00, -12091.62, 0.00, 0.00, 0.00, 0.00
49, 0.00, 18044.32, 0.00, -1466.03, 0.00, 0.00, -11964.87, 0.00, 0.00, 0.00, 0.00
50, 0.00, 18080.77, 0.00, -1450.65, 0.00, 0.00, -11788.44, 0.00, 0.00, 0.00, 0.00
51, 0.00, 18053.26, 0.00, -1505.48, 0.00, 0.00, -11896.78, 0.00, 0.00, 0.00, 0.00
52, 0.00, 18017.27, 0.00, -1530.16, 0.00, 0.00, -12078.01, 0.00, 0.00, 0.00, 0.00
53, 0.00, 18034.41, 0.00, -1480.83, 0.00, 0.00, -11988.80, 0.00, -0.00, -0.00, 1.01
54, 0.00, 18080.75, 0.00, -1451.50, 0.00, 0.00, -11808.87, 0.00, 0.00, 0.00, 0.00
55, 0.00, 18062.60, 0.00, -1486.44, 0.00, 0.00, -11866.34, 0.00, 0.00, 0.00, 0.00
56, 0.00, 18026.21, 0.00, -1513.84, 0.00, 0.00, -12035.23, 0.00, 0.00, 0.00, 0.00
57, 0.00, 18043.78, 0.00, -1469.00, 0.00, 0.00, -12000.99, 0.00, 0.00, 0.00, 0.00
58, 0.00, 18086.90, 0.00, -1407.80, 0.00, 0.00, -11811.02, 0.00, -0.01, -0.01, 1.01
59, 0.00, 18085.98, 0.00, -1419.74, 0.00, 0.00, -11806.03, 0.00, 0.00, 0.00, 0.00
60, 0.00, 18038.33, 0.00, -1449.09, 0.00, 0.00, -12015.60, 0.00, 0.00, 0.00, 0.00
61, 0.00, 18040.58, 0.00, -1400.02, 0.00, 0.00, -12042.00, 0.00, 0.00, 0.00, 0.00
62, 0.00, 18091.19, 0.00, -1361.58, 0.00, 0.00, -11841.82, 0.00, 0.00, 0.00, 0.00
63, 0.00, 18091.28, 0.00, -1395.24, 0.00, 0.00, -11792.69, 0.00, -0.01, -0.01, 1.01
64, 0.00, 18042.98, 0.00, -1451.32, 0.00, 0.00, -11994.91, 0.00, 0.00, 0.00, 0.00
65, 0.00, 18036.49, 0.00, -1455.81, 0.00, 0.00, -12059.08, 0.00, 0.00, 0.00, 0.00
66, 0.00, 18072.21, 0.00, -1447.50, 0.00, 0.00, -11868.87, 0.00, 0.00, 0.00, 0.00
67, 0.00, 18083.66, 0.00, -1478.59, 0.00, 0.00, -11766.65, 0.00, 0.00, 0.00, 0.00
68, 0.00, 18041.77, 0.00, -1533.17, 0.00, 0.00, -11936.30, 0.00, -0.01, -0.01, 1.01
69, 0.00, 18014.81, 0.00, -1524.70, 0.00, 0.00, -12052.13, 0.00, 0.00, 0.00, 0.00
70, 0.00, 18051.20, 0.00, -1470.68, 0.00, 0.00, -11896.13, 0.00, 0.00, 0.00, 0.00
71, 0.00, 18076.73, 0.00, -1459.59, 0.00, 0.00, -11750.78, 0.00, 0.00, 0.00, 0.00
72, 0.00, 18044.85, 0.00, -1507.18, 0.00, 0.00, -11892.38, 0.00, 0.00, 0.00, 0.00
73, 0.00, 18021.56, 0.00, -1511.69, 0.00, 0.00, -12053.65, 0.00, -0.00, -0.01, 1.01
74, 0.00, 18051.89, 0.00, -1464.91, 0.00, 0.00, -11940.41, 0.00, 0.00, 0.00, 0.00
75, 0.00, 18089.60, 0.00, -1444.57, 0.00, 0.00, -11754.63, 0.00, 0.00, 0.00, 0.00
76, 0.00, 18065.10, 0.00, -1491.17, 0.00, 0.00, -11842.83, 0.00, 0.00, 0.00, 0.00
77, 0.00, 18025.18, 0.00, -1519.87, 0.00, 0.00, -12035.99, 0.00, 0.00, 0.00, 0.00
78, 0.00, 18044.54, 0.00, -1483.17, 0.00, 0.00, -11962.65, 0.00, 0.00, -0.01, 1.01
79, 0.00, 18083.70, 0.00, -1453.56, 0.00, 0.00, -11763.59, 0.00, 0.00, 0.00, 0.00
80, 0.00, 18070.80, 0.00, -1487.64, 0.00, 0.00, -11809.03, 0.00, 0.00, 0.00, 0.00
81, 0.00, 18024.54, 0.00, -1517.77, 0.00, 0.00, -12011.87, 0.00, 0.00, 0.00, 0.00
82, 0.00, 18031.73, 0.00, -1475.64, 0.00, 0.00, -11995.51, 0.00, 0.00, 0.00, 0.00
83, 0.00, 18075.47, 0.00, -1446.92, 0.00, 0.00, -11791.80, 0.00, 0.00, -0.01, 1.01
84, 0.00, 18074.69, 0.00, -1474.54, 0.00, 0.00, -11771.97, 0.00, 0.00, 0.00, 0.00
85, 0.00, 18034.08, 0.00, -1519.78, 0.00, 0.00, -11966.86, 0.00, 0.00, 0.00, 0.00
86, 0.00, 18031.73, 0.00, -1498.57, 0.00, 0.00, -12011.80, 0.00, 0.00, 0.00, 0.00
87, 0.00, 18077.17, 0.00, -1442.65, 0.00, 0.00, -11834.04, 0.00, 0.00, 0.00, 0.00
88, 0.00, 18090.70, 0.00, -1459.86, 0.00, 0.00, -11751.41, 0.00, 0.00, 0.00, 0.00
89, 0.00, 18051.92, 0.00, -1507.87, 0.00, 0.00, -11932.46, 0.00, -0.01, -0.01, 1.01
90, 0.00, 18038.53, 0.00, -1501.55, 0.00, 0.00, -12024.25, 0.00, 0.00, 0.00, 0.00
91, 0.00, 18074.76, 0.00, -1446.27, 0.00, 0.00, -11844.81, 0.00, 0.00, 0.00, 0.00
92, 0.00, 18095.95, 0.00, -1449.62, 0.00, 0.00, -11730.89, 0.00, 0.00, 0.00, 0.00
93, 0.00, 18051.45, 0.00, -1500.49, 0.00, 0.00, -11897.65, 0.00, 0.00, 0.00, 0.00
94, 0.00, 18024.31, 0.00, -1504.45, 0.00, 0.00, -12033.15, 0.00, -0.01, -0.01, 1.02
95, 0.00, 18063.14, 0.00, -1458.38, 0.00, 0.00, -11892.71, 0.00, 0.00, 0.00, 0.00
96, 0.00, 18092.19, 0.00, -1440.17, 0.00, 0.00, -11746.42, 0.00, 0.00, 0.00, 0.00
97, 0.00, 18061.86, 0.00, -1483.91, 0.00, 0.00, -11874.95, 0.00, 0.00, 0.00, 0.00
98, 0.00, 18030.01, 0.00, -1502.95, 0.00, 0.00, -12028.34, 0.00, 0.00, 0.00, 0.00
99, 0.00, 18058.26, 0.00, -1454.45, 0.00, 0.00, -11914.31, 0.00, 0.00, 0.00, 1.01
100, 0.00, 18099.41, 0.00, -1434.11, 0.00, 0.00, -11728.67, 0.00, 0.00, 0.00, 0.00
101, 0.00, 18078.29, 0.00, -1478.93, 0.00, 0.00, -11820.05, 0.00, 0.00, 0.00, 0.00
102, 0.00, 18032.92, 0.00, -1499.87, 0.00, 0.00, -12008.68, 0.00, 0.00, 0.00, 0.00
103, 0.00, 18049.99, 0.00, -1456.06, 0.00, 0.00, -11945.49, 0.00, 0.00, 0.00, 0.00
104, 0.00, 18098.70, 0.00, -1415.98, 0.00, 0.00, -11741.64, 0.00, -0.00, -0.01, 1.02
105, 0.00, 18089.45, 0.00, -1449.26, 0.00, 0.00, -11773.89, 0.00, 0.00, 0.00, 0.00
106, 0.00, 18042.55, 0.00, -1479.71, 0.00, 0.00, -11984.38, 0.00, 0.00, 0.00, 0.00
107, 0.00, 18043.29, 0.00, -1441.62, 0.00, 0.00, -11985.83, 0.00, 0.00, 0.00, 0.00
108, 0.00, 18086.32, 0.00, -1398.53, 0.00, 0.00, -11783.82, 0.00, 0.00, 0.00, 0.00
109, 0.00, 18089.58, 0.00, -1423.00, 0.00, 0.00, -11759.90, 0.00, 0.00, -0.00, 1.01
110, 0.00, 18049.30, 0.00, -1470.90, 0.00, 0.00, -11949.71, 0.00, 0.00, 0.00, 0.00
111, 0.00, 18046.93, 0.00, -1439.25, 0.00, 0.00, -12000.18, 0.00, 0.00, 0.00, 0.00
112, 0.00, 18080.66, 0.00, -1386.97, 0.00, 0.00, -11812.27, 0.00, 0.00, 0.00, 0.00
113, 0.00, 18093.65, 0.00, -1396.05, 0.00, 0.00, -11742.31, 0.00, 0.00, 0.00, 0.00
114, 0.00, 18047.85, 0.00, -1435.09, 0.00, 0.00, -11932.93, 0.00, -0.00, -0.00, 1.01
115, 0.00, 18028.98, 0.00, -1417.97, 0.00, 0.00, -12012.10, 0.00, 0.00, 0.00, 0.00
116, 0.00, 18067.81, 0.00, -1361.87, 0.00, 0.00, -11840.32, 0.00, 0.00, 0.00, 0.00
117, 0.00, 18089.40, 0.00, -1360.35, 0.00, 0.00, -11721.92, 0.00, 0.00, 0.00, 0.00
118, 0.00, 18050.02, 0.00, -1407.69, 0.00, 0.00, -11874.45, 0.00, 0.00, 0.00, 0.00
119, 0.00, 18021.47, 0.00, -1417.93, 0.00, 0.00, -12025.46, 0.00, 0.00, 0.00, 0.00
120, 0.00, 18059.49, 0.00, -1370.88, 0.00, 0.00, -11891.73, 0.00, -0.00, 0.00, 1.01
121, 0.00, 18092.31, 0.00, -1356.55, 0.00, 0.00, -11724.70, 0.00, 0.00, 0.00, 0.00
122, 0.00, 18063.09, 0.00, -1404.02, 0.00, 0.00, -11828.97, 0.00, 0.00, 0.00, 0.00
123, 0.00, 18028.67, 0.00, -1428.19, 0.00, 0.00, -11995.64, 0.00, 0.00, 0.00, 0.00
124, 0.00, 18049.50, 0.00, -1390.32, 0.00, 0.00, -11905.37, 0.00, 0.00, 0.00, 0.00
125, 0.00, 18089.06, 0.00, -1366.63, 0.00, 0.00, -11719.22, 0.00, 0.00, 0.00, 1.01
126, 0.00, 18073.91, 0.00, -1424.50, 0.00, 0.00, -11781.51, 0.00, 0.00, 0.00, 0.00
127, 0.00, 18034.21, 0.00, -1473.00, 0.00, 0.00, -11984.56, 0.00, 0.00, 0.00, 0.00
128, 0.00, 18054.08, 0.00, -1430.13, 0.00, 0.00, -11940.17, 0.00, 0.00, 0.00, 0.00
129, 0.00, 18103.86, 0.00, -1395.22, 0.00, 0.00, -11725.25, 0.00, 0.00, 0.00, 0.00
130, 0.00, 18091.03, 0.00, -1452.10, 0.00, 0.00, -11743.54, 0.00, -0.00, 0.00, 1.00
131, 0.00, 18042.44, 0.00, -1494.08, 0.00, 0.00, -11955.10, 0.00, 0.00, 0.00, 0.00
132, 0.00, 18040.36, 0.00, -1467.41, 0.00, 0.00, -11976.56, 0.00, 0.00, 0.00, 0.00
133, 0.00, 18083.03, 0.00, -1430.11, 0.00, 0.00, -11771.39, 0.00, 0.00, 0.00, 0.00
134, 0.00, 18087.19, 0.00, -1460.62, 0.00, 0.00, -11734.89, 0.00, 0.00, 0.00, 0.00
135, 0.00, 18042.55, 0.00, -1513.86, 0.00, 0.00, -11934.87, 0.00, -0.00, -0.00, 1.02
136, 0.00, 18034.26, 0.00, -1502.06, 0.00, 0.00, -11996.05, 0.00, 0.00, 0.00, 0.00
137, 0.00, 18075.23, 0.00, -1460.55, 0.00, 0.00, -11804.98, 0.00, 0.00, 0.00, 0.00
138, 0.00, 18088.39, 0.00, -1476.47, 0.00, 0.00, -11716.34, 0.00, 0.00, 0.00, 0.00
139, 0.00, 18045.08, 0.00, -1524.75, 0.00, 0.00, -11899.04, 0.00, 0.00, 0.00, 0.00
140, 0.00, 18028.13, 0.00, -1513.37, 0.00, 0.00, -11997.72, 0.00, -0.00, -0.00, 1.01
141, 0.00, 18066.20, 0.00, -1457.47, 0.00, 0.00, -11835.11, 0.00, 0.00, 0.00, 0.00
142, 0.00, 18091.79, 0.00, -1463.28, 0.00, 0.00, -11693.45, 0.00, 0.00, 0.00, 0.00
143, 0.00, 18062.31, 0.00, -1515.38, 0.00, 0.00, -11841.98, 0.00, 0.00, 0.00, 0.00
144, 0.00, 18033.34, 0.00, -1529.40, 0.00, 0.00, -12017.66, 0.00, 0.00, 0.00, 0.00
145, 0.00, 18063.90, 0.00, -1481.67, 0.00, 0.00, -11882.30, 0.00, -0.01, -0.01, 1.01
146, 0.00, 18108.62, 0.00, -1463.19, 0.00, 0.00, -11689.02, 0.00, 0.00, 0.00, 0.00
147, 0.00, 18079.45, 0.00, -1507.25, 0.00, 0.00, -11796.78, 0.00, 0.00, 0.00, 0.00
148, 0.00, 18037.92, 0.00, -1528.95, 0.00, 0.00, -11975.55, 0.00, 0.00, 0.00, 0.00
149, 0.00, 18062.47, 0.00, -1488.27, 0.00, 0.00, -11899.15, 0.00, 0.00, 0.00, 0.00
150, 0.00, 18105.45, 0.00, -1462.77, 0.00, 0.00, -11709.43, 0.00, -0.01, -0.01, 1.01
151, 0.00, 18082.87, 0.00, -1503.60, 0.00, 0.00, -11761.73, 0.00, 0.00, 0.00, 0.00
152, 0.00, 18041.72, 0.00, -1540.53, 0.00, 0.00, -11966.27, 0.00, 0.00, 0.00, 0.00
153, 0.00, 18045.88, 0.00, -1503.69, 0.00, 0.00, -11933.08, 0.00, 0.00, 0.00, 0.00
154, 0.00, 18089.91, 0.00, -1462.61, 0.00, 0.00, -11729.46, 0.00, 0.00, 0.00, 0.00
155, 0.00, 18086.29, 0.00, -1487.87, 0.00, 0.00, -11719.62, 0.00, 0.00, 0.00, 0.00
156, 0.00, 18035.24, 0.00, -1533.26, 0.00, 0.00, -11929.46, 0.00, -0.01, -0.01, 1.01
157, 0.00, 18028.87, 0.00, -1506.15, 0.00, 0.00, -11971.24, 0.00, 0.00, 0.00, 0.00
158, 0.00, 18068.61, 0.00, -1463.53, 0.00, 0.00, -11777.07, 0.00, 0.00, 0.00, 0.00
159, 0.00, 18079.01, 0.00, -1487.67, 0.00, 0.00, -11722.19, 0.00, 0.00, 0.00, 0.00
160, 0.00, 18039.15, 0.00, -1538.45, 0.00, 0.00, -11906.86, 0.00, 0.00, 0.00, 0.00
161, 0.00, 18024.87, 0.00, -1519.07, 0.00, 0.00, -11977.27, 0.00, -0.00, -0.01, 1.01
162, 0.00, 18072.53, 0.00, -1461.69, 0.00, 0.00, -11790.12, 0.00, 0.00, 0.00, 0.00
163, 0.00, 18098.52, 0.00, -1472.20, 0.00, 0.00, -11672.68, 0.00, 0.00, 0.00, 0.00
164, 0.00, 18052.14, 0.00, -1522.76, 0.00, 0.00, -11850.80, 0.00, 0.00, 0.00, 0.00
165, 0.00, 18029.16, 0.00, -1528.86, 0.00, 0.00, -11980.20, 0.00, 0.00, 0.00, 0.00
166, 0.00, 18062.42, 0.00, -1470.57, 0.00, 0.00, -11839.20, 0.00, -0.00, -0.01, 1.01
167, 0.00, 18084.59, 0.00, -1461.47, 0.00, 0.00, -11687.32, 0.00, 0.00, 0.00, 0.00
168, 0.00, 18060.28, 0.00, -1516.28, 0.00, 0.00, -11801.03, 0.00, 0.00, 0.00, 0.00
169, 0.00, 18026.03, 0.00, -1531.01, 0.00, 0.00, -11974.12, 0.00, 0.00, 0.00, 0.00
170, 0.00, 18055.83, 0.00, -1484.07, 0.00, 0.00, -11866.34, 0.00, 0.00, 0.00, 0.00
171, 0.00, 18089.06, 0.00, -1461.63, 0.00, 0.00, -11684.96, 0.00, -0.01, -0.01, 1.02
172, 0.00, 18059.45, 0.00, -1515.27, 0.00, 0.00, -11760.86, 0.00, 0.00, 0.00, 0.00
173, 0.00, 18021.16, 0.00, -1534.94, 0.00, 0.00, -11945.33, 0.00, 0.00, 0.00, 0.00
174, 0.00, 18039.38, 0.00, -1495.80, 0.00, 0.00, -11892.69, 0.00, 0.00, 0.00, 0.00
175, 0.00, 18073.13, 0.00, -1463.64, 0.00, 0.00, -11706.21, 0.00, 0.00, 0.00, 0.00
176, 0.00, 18058.02, 0.00, -1502.01, 0.00, 0.00, -11742.64, 0.00, -0.01, -0.00, 1.02
177, 0.00, 18021.45, 0.00, -1541.42, 0.00, 0.00, -11934.60, 0.00, 0.00, 0.00, 0.00
178, 0.00, 18031.26, 0.00, -1505.59, 0.00, 0.00, -11912.90, 0.00, 0.00, 0.00, 0.00
179, 0.00, 18075.81, 0.00, -1463.12, 0.00, 0.00, -11715.49, 0.00, 0.00, 0.00, 0.00
180, 0.00, 18069.02, 0.00, -1499.73, 0.00, 0.00, -11700.89, 0.00, 0.00, 0.00, 0.00
181, 0.00, 18022.48, 0.00, -1544.59, 0.00, 0.00, -11906.75, 0.00, -0.00, -0.01, 1.02
182, 0.00, 18026.14, 0.00, -1520.08, 0.00, 0.00, -11943.05, 0.00, 0.00, 0.00, 0.00
183, 0.00, 18065.98, 0.00, -1459.39, 0.00, 0.00, -11746.83, 0.00, 0.00, 0.00, 0.00
184, 0.00, 18074.38, 0.00, -1479.89, 0.00, 0.00, -11677.91, 0.00, 0.00, 0.00, 0.00
185, 0.00, 18036.81, 0.00, -1541.47, 0.00, 0.00, -11867.68, 0.00, 0.00, 0.00, 0.00
186, 0.00, 18017.96, 0.00, -1526.09, 0.00, 0.00, -11963.32, 0.00, -0.01, -0.00, 1.02
187, 0.00, 18062.51, 0.00, -1476.20, 0.00, 0.00, -11776.91, 0.00, 0.00, 0.00, 0.00
188, 0.00, 18087.23, 0.00, -1482.77, 0.00, 0.00, -11650.56, 0.00, 0.00, 0.00, 0.00
189, 0.00, 18047.31, 0.00, -1531.79, 0.00, 0.00, -11809.30, 0.00, 0.00, 0.00, 0.00
190, 0.00, 18014.50, 0.00, -1531.23, 0.00, 0.00, -11953.40, 0.00, 0.00, 0.00, 0.00
191, 0.00, 18048.47, 0.00, -1481.16, 0.00, 0.00, -11812.36, 0.00, 0.00, 0.00, 0.00
192, 0.00, 18082.31, 0.00, -1476.18, 0.00, 0.00, -11652.17, 0.00, -0.00, -0.01, 1.02
193, 0.00, 18056.48, 0.00, -1531.79, 0.00, 0.00, -11773.58, 0.00, 0.00, 0.00, 0.00
194, 0.00, 18018.37, 0.00, -1544.24, 0.00, 0.00, -11953.20, 0.00, 0.00, 0.00, 0.00
195, 0.00, 18037.50, 0.00, -1483.33, 0.00, 0.00, -11845.73, 0.00, 0.00, 0.00, 0.00
196, 0.00, 18073.20, 0.00, -1464.62, 0.00, 0.00, -11655.29, 0.00, 0.00, 0.00, 0.00
197, 0.00, 18050.15, 0.00, -1518.91, 0.00, 0.00, -11729.23, 0.00, -0.01, -0.01, 1.01
198, 0.00, 18013.00, 0.00, -1546.00, 0.00, 0.00, -11927.72, 0.00, 0.00, 0.00, 0.00
199, 0.00, 18035.46, 0.00, -1504.32, 0.00, 0.00, -11870.90, 0.00, 0.00, 0.00, 0.00
200, 0.00, 18072.97, 0.00, -1463.12, 0.00, 0.00, -11666.54, 0.00, 0.00, 0.00, 0.00
201, 0.00, 18057.62, 0.00, -1502.01, 0.00, 0.00, -11698.17, 0.00, 0.00, 0.00, 0.00
202, 0.00, 18017.32, 0.00, -1549.40, 0.00, 0.00, -11903.17, 0.00, -0.00, -0.01, 1.01
203, 0.00, 18022.46, 0.00, -1521.30, 0.00, 0.00, -11909.55, 0.00, 0.00, 0.00, 0.00
204, 0.00, 18069.48, 0.00, -1468.78, 0.00, 0.00, -11697.09, 0.00, 0.00, 0.00, 0.00
205, 0.00, 18070.74, 0.00, -1493.10, 0.00, 0.00, -11666.36, 0.00, 0.00, 0.00, 0.00
206, 0.00, 18014.41, 0.00, -1545.00, 0.00, 0.00, -11874.18, 0.00, 0.00, 0.00, 0.00
207, 0.00, 18008.62, 0.00, -1529.73, 0.00, 0.00, -11925.91, 0.00, -0.01, -0.00, 1.01
208, 0.00, 18057.75, 0.00, -1479.39, 0.00, 0.00, -11724.67, 0.00, 0.00, 0.00, 0.00
209, 0.00, 18077.73, 0.00, -1488.27, 0.00, 0.00, -11634.69, 0.00, 0.00, 0.00, 0.00
210, 0.00, 18035.49, 0.00, -1541.94, 0.00, 0.00, -11818.82, 0.00, 0.00, 0.00, 0.00
211, 0.00, 18011.26, 0.00, -1541.35, 0.00, 0.00, -11943.14, 0.00, 0.00, 0.00, 0.00
212, 0.00, 18050.58, 0.00, -1487.13, 0.00, 0.00, -11772.35, 0.00, -0.01, -0.00, 1.01
213, 0.00, 18075.54, 0.00, -1482.37, 0.00, 0.00, -11632.88, 0.00, 0.00, 0.00, 0.00
214, 0.00, 18040.94, 0.00, -1532.97, 0.00, 0.00, -11781.65, 0.00, 0.00, 0.00, 0.00
215, 0.00, 18011.21, 0.00, -1539.41, 0.00, 0.00, -11936.12, 0.00, 0.00, 0.00, 0.00
216, 0.00, 18036.31, 0.00, -1488.42, 0.00, 0.00, -11811.44, 0.00, 0.00, 0.00, 0.00
217, 0.00, 18067.94, 0.00, -1477.20, 0.00, 0.00, -11640.36, 0.00, -0.01, -0.01, 1.01
218, 0.00, 18037.97, 0.00, -1522.94, 0.00, 0.00, -11748.25, 0.00, 0.00, 0.00, 0.00
219, 0.00, 18000.02, 0.00, -1550.72, 0.00, 0.00, -11927.09, 0.00, 0.00, 0.00, 0.00
220, 0.00, 18026.35, 0.00, -1513.64, 0.00, 0.00, -11831.92, 0.00, 0.00, 0.00, 0.00
221, 0.00, 18070.18, 0.00, -1474.79, 0.00, 0.00, -11635.22, 0.00, 0.00, 0.00, 0.00
222, 0.00, 18051.47, 0.00, -1509.68, 0.00, 0.00, -11690.45, 0.00, 0.00, 0.00, 0.00
223, 0.00, 18002.52, 0.00, -1550.00, 0.00, 0.00, -11894.61, 0.00, -0.01, -0.01, 1.02
224, 0.00, 18016.98, 0.00, -1520.50, 0.00, 0.00, -11871.95, 0.00, 0.00, 0.00, 0.00
225, 0.00, 18060.90, 0.00, -1485.41, 0.00, 0.00, -11663.81, 0.00, 0.00, 0.00, 0.00
226, 0.00, 18051.74, 0.00, -1509.70, 0.00, 0.00, -11684.96, 0.00, 0.00, 0.00, 0.00
227, 0.00, 18012.80, 0.00, -1547.41, 0.00, 0.00, -11876.17, 0.00, 0.00, 0.00, 0.00
228, 0.00, 18014.97, 0.00, -1523.87, 0.00, 0.00, -11880.98, 0.00, -0.01, -0.01, 1.02
229, 0.00, 18062.73, 0.00, -1481.88, 0.00, 0.00, -11670.99, 0.00, 0.00, 0.00, 0.00
230, 0.00, 18069.33, 0.00, -1502.84, 0.00, 0.00, -11622.39, 0.00, 0.00, 0.00, 0.00
231, 0.00, 18021.23, 0.00, -1547.79, 0.00, 0.00, -11834.11, 0.00, 0.00, 0.00, 0.00
232, 0.00, 18012.78, 0.00, -1530.69, 0.00, 0.00, -11908.90, 0.00, 0.00, 0.00, 0.00
233, 0.00, 18051.02, 0.00, -1485.36, 0.00, 0.00, -11716.81, 0.00, -0.00, -0.01, 1.01
234, 0.00, 18065.08, 0.00, -1492.98, 0.00, 0.00, -11615.62, 0.00, 0.00, 0.00, 0.00
235, 0.00, 18024.54, 0.00, -1544.42, 0.00, 0.00, -11788.33, 0.00, 0.00, 0.00, 0.00
236, 0.00, 18002.59, 0.00, -1543.45, 0.00, 0.00, -11907.58, 0.00, 0.00, 0.00, 0.00
237, 0.00, 18044.92, 0.00, -1491.62, 0.00, 0.00, -11748.03, 0.00, 0.00, 0.00, 0.00
238, 0.00, 18068.81, 0.00, -1489.30, 0.00, 0.00, -11604.76, 0.00, -0.00, -0.01, 1.01
239, 0.00, 18030.06, 0.00, -1540.26, 0.00, 0.00, -11746.09, 0.00, 0.00, 0.00, 0.00
240, 0.00, 17996.42, 0.00, -1555.52, 0.00, 0.00, -11901.50, 0.00, 0.00, 0.00, 0.00
241, 0.00, 18023.51, 0.00, -1500.41, 0.00, 0.00, -11784.44, 0.00, 0.00, 0.00, 0.00
242, 0.00, 18057.97, 0.00, -1482.08, 0.00, 0.00, -11612.22, 0.00, 0.00, 0.00, 0.00
243, 0.00, 18040.47, 0.00, -1524.25, 0.00, 0.00, -11708.71, 0.00, -0.01, -0.01, 1.02
244, 0.00, 18004.96, 0.00, -1554.61, 0.00, 0.00, -11886.19, 0.00, 0.00, 0.00, 0.00
245, 0.00, 18022.61, 0.00, -1515.02, 0.00, 0.00, -11817.59, 0.00, 0.00, 0.00, 0.00
246, 0.00, 18060.41, 0.00, -1487.11, 0.00, 0.00, -11626.95, 0.00, 0.00, 0.00, 0.00
247, 0.00, 18046.11, 0.00, -1521.28, 0.00, 0.00, -11660.77, 0.00, 0.00, 0.00, 0.00
248, 0.00, 17997.58, 0.00, -1555.73, 0.00, 0.00, -11879.21, 0.00, 0.00, -0.01, 1.01
249, 0.00, 18015.53, 0.00, -1520.86, 0.00, 0.00, -11842.58, 0.00, 0.00, 0.00, 0.00
250, 0.00, 18062.18, 0.00, -1473.34, 0.00, 0.00, -11638.42, 0.00, 0.00, 0.00, 0.00
251, 0.00, 18054.76, 0.00, -1505.50, 0.00, 0.00, -11631.20, 0.00, 0.00, 0.00, 0.00
252, 0.00, 18013.02, 0.00, -1560.87, 0.00, 0.00, -11838.62, 0.00, 0.00, 0.00, 0.00
253, 0.00, 18004.17, 0.00, -1535.03, 0.00, 0.00, -11871.55, 0.00, 0.00, -0.01, 1.01
254, 0.00, 18044.09, 0.00, -1480.94, 0.00, 0.00, -11676.95, 0.00, 0.00, 0.00, 0.00
255, 0.00, 18054.58, 0.00, -1489.27, 0.00, 0.00, -11627.73, 0.00, 0.00, 0.00, 0.00
0, 0.00, 18016.27, 0.00, -1537.60, 0.00, 0.00, -11811.85, 0.00, 0.00, 0.00, 0.00
1, 0.00, 18010.39, 0.00, -1537.40, 0.00, 0.00, -11884.51, 0.00, 0.00, 0.00, 0.00
2, 0.00, 18050.93, 0.00, -1486.99, 0.00, 0.00, -11701.52, 0.00, 0.00, 0.00, 0.00
3, 0.00, 18070.96, 0.00, -1487.33, 0.00, 0.00, -11593.74, 0.00, -0.00, -0.01, 1.02
4, 0.00, 18033.07, 0.00, -1539.36, 0.00, 0.00, -11763.03, 0.00, 0.00, 0.00, 0.00
5, 0.00, 18001.83, 0.00, -1547.97, 0.00, 0.00, -11897.14, 0.00, 0.00, 0.00, 0.00
6, 0.00, 18032.36, 0.00, -1493.68, 0.00, 0.00, -11747.00, 0.00, 0.00, 0.00, 0.00
7, 0.00, 18062.36, 0.00, -1471.77, 0.00, 0.00, -11600.87, 0.00, 0.00, 0.00, 0.00
8, 0.00, 18030.28, 0.00, -1519.72, 0.00, 0.00, -11727.89, 0.00, 0.00, -0.01, 1.01
9, 0.00, 18004.55, 0.00, -1539.05, 0.00, 0.00, -11885.96, 0.00, 0.00, 0.00, 0.00
10, 0.00, 18034.59, 0.00, -1491.22, 0.00, 0.00, -11768.91, 0.00, 0.00, 0.00, 0.00
11, 0.00, 18074.40, 0.00, -1468.15, 0.00, 0.00, -11577.85, 0.00, 0.00, 0.00, 0.00
12, 0.00, 18057.28, 0.00, -1523.70, 0.00, 0.00, -11671.90, 0.00, 0.00, 0.00, 0.00
13, 0.00, 18012.11, 0.00, -1561.25, 0.00, 0.00, -11869.47, 0.00, -0.01, -0.01, 1.01
14, 0.00, 18029.65, 0.00, -1524.08, 0.00, 0.00, -11801.99, 0.00, 0.00, 0.00, 0.00
15, 0.00, 18071.97, 0.00, -1483.62, 0.00, 0.00, -11604.80, 0.00, 0.00, 0.00, 0.00
16, 0.00, 18059.22, 0.00, -1524.37, 0.00, 0.00, -11640.03, 0.00, 0.00, 0.00, 0.00
17, 0.00, 18014.12, 0.00, -1569.74, 0.00, 0.00, -11829.71, 0.00, 0.00, 0.00, 0.00
18, 0.00, 18020.42, 0.00, -1536.03, 0.00, 0.00, -11822.69, 0.00, -0.01, -0.01, 1.01
19, 0.00, 18059.76, 0.00, -1493.28, 0.00, 0.00, -11638.17, 0.00, 0.00, 0.00, 0.00
20, 0.00, 18058.85, 0.00, -1517.73, 0.00, 0.00, -11606.75, 0.00, 0.00, 0.00, 0.00
21, 0.00, 18013.40, 0.00, -1559.17, 0.00, 0.00, -11805.10, 0.00, 0.00, 0.00, 0.00
22, 0.00, 18006.92, 0.00, -1542.18, 0.00, 0.00, -11854.67, 0.00, 0.00, 0.00, 0.00
23, 0.00, 18054.20, 0.00, -1496.99, 0.00, 0.00, -11658.94, 0.00, -0.01, -0.00, 1.01
24, 0.00, 18070.24, 0.00, -1508.99, 0.00, 0.00, -11584.91, 0.00, 0.00, 0.00, 0.00
25, 0.00, 18028.09, 0.00, -1562.59, 0.00, 0.00, -11779.12, 0.00, 0.00, 0.00, 0.00
26, 0.00, 18011.08, 0.00, -1559.75, 0.00, 0.00, -11876.82, 0.00, 0.00, 0.00, 0.00
27, 0.00, 18056.07, 0.00, -1499.51, 0.00, 0.00, -11687.77, 0.00, 0.00, 0.00, 0.00
28, 0.00, 18077.33, 0.00, -1493.54, 0.00, 0.00, -11566.27, 0.00, -0.00, -0.00, 1.01
29, 0.00, 18034.50, 0.00, -1524.41, 0.00, 0.00, -11738.96, 0.00, 0.00, 0.00, 0.00
30, 0.00, 18004.38, 0.00, -1500.29, 0.00, 0.00, -11882.99, 0.00, 0.00, 0.00, 0.00
31, 0.00, 18038.68, 0.00, -1441.67, 0.00, 0.00, -11736.95, 0.00, 0.00, 0.00, 0.00
32, 0.00, 18067.27, 0.00, -1410.22, 0.00, 0.00, -11572.93, 0.00, 0.00, 0.00, 0.00
33, 0.00, 18038.04, 0.00, -1449.40, 0.00, 0.00, -11698.95, 0.00, 0.00, 0.00, 0.00
34, 0.00, 18003.08, 0.00, -1480.27, 0.00, 0.00, -11880.78, 0.00, 0.01, 0.00, 1.02
35, 0.00, 18035.29, 0.00, -1446.58, 0.00, 0.00, -11776.15, 0.00, 0.00, 0.00, 0.00
36, 0.00, 18072.14, 0.00, -1416.63, 0.00, 0.00, -11575.95, 0.00, 0.00, 0.00, 0.00
37, 0.00, 18046.89, 0.00, -1482.95, 0.00, 0.00, -11649.08, 0.00, 0.00, 0.00, 0.00
38, 0.00, 18004.13, 0.00, -1557.83, 0.00, 0.00, -11836.75, 0.00, 0.00, 0.00, 0.00
39, 0.00, 18016.67, 0.00, -1538.18, 0.00, 0.00, -11796.07, 0.00, 0.00, 0.00, 1.02
40, 0.00, 18057.88, 0.00, -1502.77, 0.00, 0.00, -11587.23, 0.00, 0.00, 0.00, 0.00
41, 0.00, 18053.08, 0.00, -1533.20, 0.00, 0.00, -11600.02, 0.00, 0.00, 0.00, 0.00
42, 0.00, 18011.17, 0.00, -1564.78, 0.00, 0.00, -11816.14, 0.00, 0.00, 0.00, 0.00
43, 0.00, 18007.32, 0.00, -1534.92, 0.00, 0.00, -11826.71, 0.00, 0.00, 0.00, 0.00
44, 0.00, 18052.81, 0.00, -1491.17, 0.00, 0.00, -11622.08, 0.00, 0.00, -0.01, 1.01
45, 0.00, 18061.51, 0.00, -1509.79, 0.00, 0.00, -11587.34, 0.00, 0.00, 0.00, 0.00
46, 0.00, 18014.03, 0.00, -1559.53, 0.00, 0.00, -11792.04, 0.00, 0.00, 0.00, 0.00
47, 0.00, 18000.84, 0.00, -1542.45, 0.00, 0.00, -11846.25, 0.00, 0.00, 0.00, 0.00
48, 0.00, 18042.98, 0.00, -1496.49, 0.00, 0.00, -11653.55, 0.00, 0.00, 0.00, 0.00
49, 0.00, 18055.60, 0.00, -1510.91, 0.00, 0.00, -11561.19, 0.00, 0.00, 0.00, 1.01
50, 0.00, 18014.68, 0.00, -1556.96, 0.00, 0.00, -11739.05, 0.00, 0.00, 0.00, 0.00
51, 0.00, 17994.43, 0.00, -1553.20, 0.00, 0.00, -11849.71, 0.00, 0.00, 0.00, 0.00
52, 0.00, 18031.06, 0.00, -1497.70, 0.00, 0.00, -11687.17, 0.00, 0.00, 0.00, 0.00
53, 0.00, 18047.69, 0.00, -1499.67, 0.00, 0.00, -11556.08, 0.00, 0.00, 0.00, 0.00
54, 0.00, 18015.37, 0.00, -1550.03, 0.00, 0.00, -11703.80, 0.00, -0.00, 0.00, 1.01
55, 0.00, 17986.89, 0.00, -1564.33, 0.00, 0.00, -11853.60, 0.00, 0.00, 0.00, 0.00
56, 0.00, 18015.68, 0.00, -1506.26, 0.00, 0.00, -11738.06, 0.00, 0.00, 0.00, 0.00
57, 0.00, 18052.50, 0.00, -1489.39, 0.00, 0.00, -11562.29, 0.00, 0.00, 0.00, 0.00
58, 0.00, 18031.22, 0.00, -1533.75, 0.00, 0.00, -11659.18, 0.00, 0.00, 0.00, 0.00
59, 0.00, 17993.53, 0.00, -1559.19, 0.00, 0.00, -11837.42, 0.00, -0.00, -0.00, 1.02
60, 0.00, 18012.67, 0.00, -1522.89, 0.00, 0.00, -11756.73, 0.00, 0.00, 0.00, 0.00
61, 0.00, 18057.08, 0.00, -1492.31, 0.00, 0.00, -11555.40, 0.00, 0.00, 0.00, 0.00
62, 0.00, 18039.31, 0.00, -1529.80, 0.00, 0.00, -11611.53, 0.00, 0.00, 0.00, 0.00
63, 0.00, 17995.75, 0.00, -1552.60, 0.00, 0.00, -11818.80, 0.00, 0.00, 0.00, 0.00
64, 0.00, 18006.74, 0.00, -1518.49, 0.00, 0.00, -11784.31, 0.00, -0.00, -0.01, 1.02
65, 0.00, 18049.64, 0.00, -1485.41, 0.00, 0.00, -11576.93, 0.00, 0.00, 0.00, 0.00
66, 0.00, 18049.97, 0.00, -1509.44, 0.00, 0.00, -11585.69, 0.00, 0.00, 0.00, 0.00
67, 0.00, 18014.23, 0.00, -1543.21, 0.00, 0.00, -11786.23, 0.00, 0.00, 0.00, 0.00
68, 0.00, 18017.85, 0.00, -1523.03, 0.00, 0.00, -11814.77, 0.00, 0.00, 0.00, 0.00
69, 0.00, 18055.74, 0.00, -1476.60, 0.00, 0.00, -11610.93, 0.00, 0.00, 0.00, 0.00
70, 0.00, 18061.77, 0.00, -1493.79, 0.00, 0.00, -11552.54, 0.00, -0.01, -0.01, 1.02
71, 0.00, 18025.61, 0.00, -1545.04, 0.00, 0.00, -11744.84, 0.00, 0.00, 0.00, 0.00
72, 0.00, 18015.26, 0.00, -1533.53, 0.00, 0.00, -11821.28, 0.00, 0.00, 0.00, 0.00
73, 0.00, 18049.50, 0.00, -1477.85, 0.00, 0.00, -11648.59, 0.00, 0.00, 0.00, 0.00
74, 0.00, 18066.04, 0.00, -1478.88, 0.00, 0.00, -11544.94, 0.00, 0.00, 0.00, 0.00
75, 0.00, 18031.96, 0.00, -1530.71, 0.00, 0.00, -11706.50, 0.00, -0.00, -0.01, 1.02
76, 0.00, 18011.84, 0.00, -1532.35, 0.00, 0.00, -11818.95, 0.00, 0.00, 0.00, 0.00
77, 0.00, 18046.75, 0.00, -1462.32, 0.00, 0.00, -11666.65, 0.00, 0.00, 0.00, 0.00
78, 0.00, 18081.53, 0.00, -1457.83, 0.00, 0.00, -11518.68, 0.00, 0.00, 0.00, 0.00
79, 0.00, 18044.63, 0.00, -1507.36, 0.00, 0.00, -11662.74, 0.00, 0.00, 0.00, 0.00
80, 0.00, 18007.53, 0.00, -1520.92, 0.00, 0.00, -11826.11, 0.00, 0.00, -0.00, 1.02
81, 0.00, 18040.36, 0.00, -1464.71, 0.00, 0.00, -11704.36, 0.00, 0.00, 0.00, 0.00
82, 0.00, 18081.53, 0.00, -1434.13, 0.00, 0.00, -11523.42, 0.00, 0.00, 0.00, 0.00
83, 0.00, 18063.09, 0.00, -1478.23, 0.00, 0.00, -11604.94, 0.00, 0.00, 0.00, 0.00
84, 0.00, 18022.86, 0.00, -1498.73, 0.00, 0.00, -11805.68, 0.00, 0.00, 0.00, 0.00
85, 0.00, 18034.86, 0.00, -1452.17, 0.00, 0.00, -11747.41, 0.00, -0.00, 0.00, 1.02
86, 0.00, 18074.27, 0.00, -1416.16, 0.00, 0.00, -11560.70, 0.00, 0.00, 0.00, 0.00
87, 0.00, 18059.58, 0.00, -1449.06, 0.00, 0.00, -11599.97, 0.00, 0.00, 0.00, 0.00
88, 0.00, 18018.93, 0.00, -1486.37, 0.00, 0.00, -11795.51, 0.00, 0.00, 0.00, 0.00
89, 0.00, 18030.32, 0.00, -1449.98, 0.00, 0.00, -11786.01, 0.00, 0.00, 0.00, 0.00
90, 0.00, 18073.49, 0.00, -1406.08, 0.00, 0.00, -11588.80, 0.00, 0.00, -0.00, 1.01
91, 0.00, 18073.13, 0.00, -1425.35, 0.00, 0.00, -11563.09, 0.00, 0.00, 0.00, 0.00
92, 0.00, 18031.22, 0.00, -1462.97, 0.00, 0.00, -11764.06, 0.00, 0.00, 0.00, 0.00
93, 0.00, 18026.70, 0.00, -1442.56, 0.00, 0.00, -11805.16, 0.00, 0.00, 0.00, 0.00
94, 0.00, 18073.64, 0.00, -1403.96, 0.00, 0.00, -11602.50, 0.00, 0.00, 0.00, 0.00
95, 0.00, 18090.74, 0.00, -1426.73, 0.00, 0.00, -11530.62, 0.00, 0.01, -0.00, 1.01
96, 0.00, 18045.55, 0.00, -1489.94, 0.00, 0.00, -11711.44, 0.00, 0.00, 0.00, 0.00
97, 0.00, 18026.66, 0.00, -1487.42, 0.00, 0.00, -11804.31, 0.00, 0.00, 0.00, 0.00
98, 0.00, 18067.56, 0.00, -1429.26, 0.00, 0.00, -11631.83, 0.00, 0.00, 0.00, 0.00
99, 0.00, 18085.62, 0.00, -1436.99, 0.00, 0.00, -11514.39, 0.00, 0.00, 0.00, 0.00
100, 0.00, 18045.99, 0.00, -1504.65, 0.00, 0.00, -11676.30, 0.00, 0.01, -0.00, 1.02
101, 0.00, 18021.56, 0.00, -1520.90, 0.00, 0.00, -11809.83, 0.00, 0.00, 0.00, 0.00
102, 0.00, 18054.02, 0.00, -1475.86, 0.00, 0.00, -11665.35, 0.00, 0.00, 0.00, 0.00
103, 0.00, 18079.90, 0.00, -1478.84, 0.00, 0.00, -11503.35, 0.00, 0.00, 0.00, 0.00
104, 0.00, 18042.51, 0.00, -1531.14, 0.00, 0.00, -11640.74, 0.00, 0.00, 0.00, 0.00
105, 0.00, 18011.37, 0.00, -1555.73, 0.00, 0.00, -11805.86, 0.00, 0.00, 0.00, 0.00
106, 0.00, 18043.09, 0.00, -1517.50, 0.00, 0.00, -11696.38, 0.00, 0.00, -0.01, 1.02
107, 0.00, 18077.44, 0.00, -1496.61, 0.00, 0.00, -11517.54, 0.00, 0.00, 0.00, 0.00
108, 0.00, 18057.62, 0.00, -1535.50, 0.00, 0.00, -11606.30, 0.00, 0.00, 0.00, 0.00
109, 0.00, 18019.33, 0.00, -1565.43, 0.00, 0.00, -11800.20, 0.00, 0.00, 0.00, 0.00
110, 0.00, 18032.63, 0.00, -1537.31, 0.00, 0.00, -11726.80, 0.00, 0.00, 0.00, 0.00
111, 0.00, 18070.04, 0.00, -1497.99, 0.00, 0.00, -11528.58, 0.00, -0.00, -0.01, 1.02
112, 0.00, 18061.48, 0.00, -1534.27, 0.00, 0.00, -11558.29, 0.00, 0.00, 0.00, 0.00
113, 0.00, 18019.66, 0.00, -1584.90, 0.00, 0.00, -11762.94, 0.00, 0.00, 0.00, 0.00
114, 0.00, 18024.69, 0.00, -1556.58, 0.00, 0.00, -11752.86, 0.00, 0.00, 0.00, 0.00
115, 0.00, 18073.73, 0.00, -1511.22, 0.00, 0.00, -11542.13, 0.00, 0.00, 0.00, 0.00
116, 0.00, 18072.19, 0.00, -1524.17, 0.00, 0.00, -11531.42, 0.00, 0.00, -0.00, 1.01
117, 0.00, 18022.86, 0.00, -1573.25, 0.00, 0.00, -11725.43, 0.00, 0.00, 0.00, 0.00
118, 0.00, 18016.15, 0.00, -1555.44, 0.00, 0.00, -11773.47, 0.00, 0.00, 0.00, 0.00
119, 0.00, 18065.35, 0.00, -1515.60, 0.00, 0.00, -11586.81, 0.00, 0.00, 0.00, 0.00
120, 0.00, 18079.57, 0.00, -1528.66, 0.00, 0.00, -11510.52, 0.00, 0.00, 0.00, 0.00
121, 0.00, 18033.68, 0.00, -1573.50, 0.00, 0.00, -11692.58, 0.00, -0.01, -0.00, 1.01
122, 0.00, 18014.46, 0.00, -1559.39, 0.00, 0.00, -11783.59, 0.00, 0.00, 0.00, 0.00
123, 0.00, 18056.50, 0.00, -1511.25, 0.00, 0.00, -11613.92, 0.00, 0.00, 0.00, 0.00
124, 0.00, 18078.87, 0.00, -1512.77, 0.00, 0.00, -11495.43, 0.00, 0.00, 0.00, 0.00
125, 0.00, 18040.29, 0.00, -1563.21, 0.00, 0.00, -11658.60, 0.00, 0.00, 0.00, 0.00
126, 0.00, 18008.38, 0.00, -1579.69, 0.00, 0.00, -11795.28, 0.00, -0.01, -0.00, 1.01
127, 0.00, 18044.74, 0.00, -1524.59, 0.00, 0.00, -11662.67, 0.00, 0.00, 0.00, 0.00
128, 0.00, 18081.87, 0.00, -1513.37, 0.00, 0.00, -11494.85, 0.00, 0.00, 0.00, 0.00
129, 0.00, 18046.48, 0.00, -1553.94, 0.00, 0.00, -11608.78, 0.00, 0.00, 0.00, 0.00
130, 0.00, 18011.06, 0.00, -1572.11, 0.00, 0.00, -11778.34, 0.00, 0.00, 0.00, 0.00
131, 0.00, 18039.49, 0.00, -1531.63, 0.00, 0.00, -11681.94, 0.00, -0.01, -0.01, 1.01
132, 0.00, 18071.45, 0.00, -1510.60, 0.00, 0.00, -11499.06, 0.00, 0.00, 0.00, 0.00
133, 0.00, 18055.20, 0.00, -1549.18, 0.00, 0.00, -11573.38, 0.00, 0.00, 0.00, 0.00
134, 0.00, 18011.97, 0.00, -1575.71, 0.00, 0.00, -11760.62, 0.00, 0.00, 0.00, 0.00
135, 0.00, 18027.71, 0.00, -1539.59, 0.00, 0.00, -11715.26, 0.00, 0.00, 0.00, 0.00
136, 0.00, 18073.82, 0.00, -1505.59, 0.00, 0.00, -11524.94, 0.00, 0.00, 0.00, 0.00
137, 0.00, 18061.93, 0.00, -1544.17, 0.00, 0.00, -11535.60, 0.00, -0.00, -0.01, 1.02
138, 0.00, 18017.92, 0.00, -1590.80, 0.00, 0.00, -11740.90, 0.00, 0.00, 0.00, 0.00
139, 0.00, 18023.40, 0.00, -1552.24, 0.00, 0.00, -11749.02, 0.00, 0.00, 0.00, 0.00
140, 0.00, 18067.74, 0.00, -1504.61, 0.00, 0.00, -11547.22, 0.00, 0.00, 0.00, 0.00
141, 0.00, 18069.46, 0.00, -1526.98, 0.00, 0.00, -11507.84, 0.00, 0.00, 0.00, 0.00
142, 0.00, 18028.20, 0.00, -1578.06, 0.00, 0.00, -11694.21, 0.00, -0.00, -0.01, 1.02
143, 0.00, 18013.56, 0.00, -1562.61, 0.00, 0.00, -11766.00, 0.00, 0.00, 0.00, 0.00
144, 0.00, 18060.07, 0.00, -1516.34, 0.00, 0.00, -11579.97, 0.00, 0.00, 0.00, 0.00
145, 0.00, 18076.19, 0.00, -1522.00, 0.00, 0.00, -11481.58, 0.00, 0.00, 0.00, 0.00
146, 0.00, 18037.90, 0.00, -1573.21, 0.00, 0.00, -11656.93, 0.00, 0.00, 0.00, 0.00
147, 0.00, 18020.67, 0.00, -1570.48, 0.00, 0.00, -11764.21, 0.00, -0.01, -0.01, 1.02
148, 0.00, 18048.54, 0.00, -1522.69, 0.00, 0.00, -11612.20, 0.00, 0.00, 0.00, 0.00
149, 0.00, 18067.83, 0.00, -1524.43, 0.00, 0.00, -11481.20, 0.00, 0.00, 0.00, 0.00
150, 0.00, 18034.13, 0.00, -1566.10, 0.00, 0.00, -11628.25, 0.00, 0.00, 0.00, 0.00
151, 0.00, 18003.08, 0.00, -1579.02, 0.00, 0.00, -11774.99, 0.00, 0.00, 0.00, 0.00
152, 0.00, 18031.22, 0.00, -1532.12, 0.00, 0.00, -11639.20, 0.00, -0.01, -0.01, 1.02
153, 0.00, 18062.69, 0.00, -1515.14, 0.00, 0.00, -11465.37, 0.00, 0.00, 0.00, 0.00
154, 0.00, 18038.10, 0.00, -1559.35, 0.00, 0.00, -11576.24, 0.00, 0.00, 0.00, 0.00
155, 0.00, 18008.71, 0.00, -1585.30, 0.00, 0.00, -11750.67, 0.00, 0.00, 0.00, 0.00
156, 0.00, 18026.37, 0.00, -1545.35, 0.00, 0.00, -11686.36, 0.00, 0.00, 0.00, 0.00
157, 0.00, 18073.15, 0.00, -1513.01, 0.00, 0.00, -11482.98, 0.00, -0.01, -0.00, 1.02
158, 0.00, 18060.07, 0.00, -1554.81, 0.00, 0.00, -11520.27, 0.00, 0.00, 0.00, 0.00
159, 0.00, 18011.01, 0.00, -1595.22, 0.00, 0.00, -11732.47, 0.00, 0.00, 0.00, 0.00
160, 0.00, 18018.32, 0.00, -1556.37, 0.00, 0.00, -11717.25, 0.00, 0.00, 0.00, 0.00
161, 0.00, 18065.48, 0.00, -1511.69, 0.00, 0.00, -11513.58, 0.00, 0.00, 0.00, 0.00
162, 0.00, 18059.16, 0.00, -1543.43, 0.00, 0.00, -11502.77, 0.00, -0.00, -0.01, 1.02
163, 0.00, 18007.48, 0.00, -1588.47, 0.00, 0.00, -11704.58, 0.00, 0.00, 0.00, 0.00
164, 0.00, 18005.76, 0.00, -1569.70, 0.00, 0.00, -11740.01, 0.00, 0.00, 0.00, 0.00
165, 0.00, 18048.34, 0.00, -1523.09, 0.00, 0.00, -11531.26, 0.00, 0.00, 0.00, 0.00
166, 0.00, 18054.26, 0.00, -1543.41, 0.00, 0.00, -11473.71, 0.00, 0.00, 0.00, 0.00
167, 0.00, 18012.42, 0.00, -1591.11, 0.00, 0.00, -11661.87, 0.00, 0.00, -0.01, 1.01
168, 0.00, 18004.20, 0.00, -1574.37, 0.00, 0.00, -11740.30, 0.00, 0.00, 0.00, 0.00
169, 0.00, 18043.60, 0.00, -1523.09, 0.00, 0.00, -11560.57, 0.00, 0.00, 0.00, 0.00
170, 0.00, 18058.94, 0.00, -1526.74, 0.00, 0.00, -11456.88, 0.00, 0.00, 0.00, 0.00
171, 0.00, 18021.07, 0.00, -1576.67, 0.00, 0.00, -11636.72, 0.00, 0.00, 0.00, 0.00
172, 0.00, 17993.89, 0.00, -1583.29, 0.00, 0.00, -11763.63, 0.00, 0.00, 0.00, 0.00
173, 0.00, 18027.24, 0.00, -1532.66, 0.00, 0.00, -11615.17, 0.00, 0.00, -0.00, 1.02
174, 0.00, 18057.59, 0.00, -1520.14, 0.00, 0.00, -11462.69, 0.00, 0.00, 0.00, 0.00
175, 0.00, 18024.87, 0.00, -1571.80, 0.00, 0.00, -11592.42, 0.00, 0.00, 0.00, 0.00
176, 0.00, 17995.17, 0.00, -1596.45, 0.00, 0.00, -11755.83, 0.00, 0.00, 0.00, 0.00
177, 0.00, 18023.91, 0.00, -1552.06, 0.00, 0.00, -11653.71, 0.00, 0.00, 0.00, 0.00
178, 0.00, 18061.71, 0.00, -1528.77, 0.00, 0.00, -11468.08, 0.00, -0.00, -0.01, 1.01
179, 0.00, 18045.66, 0.00, -1568.24, 0.00, 0.00, -11537.28, 0.00, 0.00, 0.00, 0.00
180, 0.00, 18012.98, 0.00, -1589.57, 0.00, 0.00, -11729.17, 0.00, 0.00, 0.00, 0.00
181, 0.00, 18036.49, 0.00, -1547.25, 0.00, 0.00, -11664.57, 0.00, 0.00, 0.00, 0.00
182, 0.00, 18080.97, 0.00, -1523.20, 0.00, 0.00, -11465.24, 0.00, 0.00, 0.00, 0.00
183, 0.00, 18072.17, 0.00, -1566.19, 0.00, 0.00, -11505.45, 0.00, -0.00, -0.01, 1.01
184, 0.00, 18029.79, 0.00, -1599.65, 0.00, 0.00, -11700.85, 0.00, 0.00, 0.00, 0.00
185, 0.00, 18031.06, 0.00, -1567.13, 0.00, 0.00, -11707.28, 0.00, 0.00, 0.00, 0.00
186, 0.00, 18073.78, 0.00, -1529.04, 0.00, 0.00, -11499.57, 0.00, 0.00, 0.00, 0.00
187, 0.00, 18075.14, 0.00, -1552.22, 0.00, 0.00, -11467.03, 0.00, 0.00, 0.00, 0.00
188, 0.00, 18029.27, 0.00, -1599.02, 0.00, 0.00, -11684.24, 0.00, -0.00, -0.01, 1.01
189, 0.00, 18029.03, 0.00, -1576.94, 0.00, 0.00, -11724.85, 0.00, 0.00, 0.00, 0.00
190, 0.00, 18067.79, 0.00, -1527.00, 0.00, 0.00, -11533.03, 0.00, 0.00, 0.00, 0.00
191, 0.00, 18080.88, 0.00, -1544.08, 0.00, 0.00, -11454.84, 0.00, 0.00, 0.00, 0.00
192, 0.00, 18039.69, 0.00, -1591.94, 0.00, 0.00, -11642.44, 0.00, 0.00, 0.00, 0.00
193, 0.00, 18017.14, 0.00, -1577.52, 0.00, 0.00, -11744.90, 0.00, -0.01, -0.01, 1.02
194, 0.00, 18056.39, 0.00, -1527.76, 0.00, 0.00, -11564.48, 0.00, 0.00, 0.00, 0.00
195, 0.00, 18087.03, 0.00, -1534.98, 0.00, 0.00, -11434.19, 0.00, 0.00, 0.00, 0.00
196, 0.00, 18051.60, 0.00, -1592.99, 0.00, 0.00, -11601.92, 0.00, 0.00, 0.00, 0.00
197, 0.00, 18028.38, 0.00, -1597.32, 0.00, 0.00, -11735.89, 0.00, 0.00, 0.00, 0.00
198, 0.00, 18064.03, 0.00, -1545.56, 0.00, 0.00, -11585.49, 0.00, -0.01, -0.00, 1.01
199, 0.00, 18094.09, 0.00, -1535.65, 0.00, 0.00, -11430.28, 0.00, 0.00, 0.00, 0.00
200, 0.00, 18059.34, 0.00, -1583.04, 0.00, 0.00, -11559.34, 0.00, 0.00, 0.00, 0.00
201, 0.00, 18020.49, 0.00, -1600.34, 0.00, 0.00, -11732.74, 0.00, 0.00, 0.00, 0.00
202, 0.00, 18048.34, 0.00, -1550.25, 0.00, 0.00, -11625.75, 0.00, 0.00, 0.00, 0.00
203, 0.00, 18088.77, 0.00, -1530.42, 0.00, 0.00, -11440.67, 0.00, 0.00, 0.00, 0.00
204, 0.00, 18070.07, 0.00, -1575.82, 0.00, 0.00, -11530.06, 0.00, -0.00, -0.01, 1.01
205, 0.00, 18023.48, 0.00, -1601.06, 0.00, 0.00, -11723.29, 0.00, 0.00, 0.00, 0.00
206, 0.00, 18043.18, 0.00, -1556.04, 0.00, 0.00, -11660.59, 0.00, 0.00, 0.00, 0.00
207, 0.00, 18096.84, 0.00, -1534.92, 0.00, 0.00, -11462.80, 0.00, 0.00, 0.00, 0.00
208, 0.00, 18089.18, 0.00, -1575.48, 0.00, 0.00, -11493.58, 0.00, 0.00, 0.00, 0.00
209, 0.00, 18044.14, 0.00, -1610.93, 0.00, 0.00, -11694.86, 0.00, -0.00, -0.01, 1.02
210, 0.00, 18050.22, 0.00, -1572.36, 0.00, 0.00, -11697.61, 0.00, 0.00, 0.00, 0.00
211, 0.00, 18092.44, 0.00, -1532.23, 0.00, 0.00, -11490.74, 0.00, 0.00, 0.00, 0.00
212, 0.00, 18089.85, 0.00, -1554.81, 0.00, 0.00, -11457.15, 0.00, 0.00, 0.00, 0.00
213, 0.00, 18042.93, 0.00, -1598.75, 0.00, 0.00, -11654.02, 0.00, 0.00, 0.00, 0.00
214, 0.00, 18034.50, 0.00, -1577.72, 0.00, 0.00, -11694.39, 0.00, -0.01, -0.01, 1.01
215, 0.00, 18071.45, 0.00, -1535.27, 0.00, 0.00, -11516.04, 0.00, 0.00, 0.00, 0.00
216, 0.00, 18087.23, 0.00, -1552.82, 0.00, 0.00, -11431.38, 0.00, 0.00, 0.00, 0.00
217, 0.00, 18045.70, 0.00, -1607.16, 0.00, 0.00, -11616.40, 0.00, 0.00, 0.00, 0.00
218, 0.00, 18029.39, 0.00, -1599.11, 0.00, 0.00, -11731.56, 0.00, 0.00, 0.00, 0.00
219, 0.00, 18071.38, 0.00, -1540.17, 0.00, 0.00, -11558.44, 0.00, -0.00, -0.01, 1.01
220, 0.00, 18097.16, 0.00, -1532.57, 0.00, 0.00, -11421.92, 0.00, 0.00, 0.00, 0.00
221, 0.00, 18058.15, 0.00, -1589.12, 0.00, 0.00, -11571.86, 0.00, 0.00, 0.00, 0.00
222, 0.00, 18022.75, 0.00, -1603.94, 0.00, 0.00, -11720.72, 0.00, 0.00, 0.00, 0.00
223, 0.00, 18055.25, 0.00, -1563.28, 0.00, 0.00, -11587.64, 0.00, 0.00, 0.00, 0.00
224, 0.00, 18088.91, 0.00, -1536.08, 0.00, 0.00, -11416.82, 0.00, 0.00, -0.01, 1.02
225, 0.00, 18062.29, 0.00, -1575.26, 0.00, 0.00, -11534.48, 0.00, 0.00, 0.00, 0.00
226, 0.00, 18022.52, 0.00, -1599.29, 0.00, 0.00, -11724.07, 0.00, 0.00, 0.00, 0.00
227, 0.00, 18046.04, 0.00, -1559.84, 0.00, 0.00, -11625.75, 0.00, 0.00, 0.00, 0.00
228, 0.00, 18083.23, 0.00, -1534.60, 0.00, 0.00, -11437.86, 0.00, 0.00, 0.00, 0.00
229, 0.00, 18067.54, 0.00, -1571.48, 0.00, 0.00, -11490.45, 0.00, -0.00, -0.00, 1.01
230, 0.00, 18028.71, 0.00, -1603.87, 0.00, 0.00, -11670.11, 0.00, 0.00, 0.00, 0.00
231, 0.00, 18036.99, 0.00, -1566.37, 0.00, 0.00, -11645.12, 0.00, 0.00, 0.00, 0.00
232, 0.00, 18078.87, 0.00, -1535.14, 0.00, 0.00, -11443.18, 0.00, 0.00, 0.00, 0.00
233, 0.00, 18069.60, 0.00, -1569.00, 0.00, 0.00, -11451.83, 0.00, 0.00, 0.00, 0.00
234, 0.00, 18024.87, 0.00, -1597.43, 0.00, 0.00, -11670.67, 0.00, -0.01, -0.00, 1.01
235, 0.00, 18024.80, 0.00, -1573.25, 0.00, 0.00, -11686.56, 0.00, 0.00, 0.00, 0.00
236, 0.00, 18070.67, 0.00, -1528.35, 0.00, 0.00, -11474.92, 0.00, 0.00, 0.00, 0.00
237, 0.00, 18083.30, 0.00, -1548.66, 0.00, 0.00, -11422.55, 0.00, 0.00, 0.00, 0.00
238, 0.00, 18041.57, 0.00, -1593.95, 0.00, 0.00, -11625.86, 0.00, 0.00, 0.00, 0.00
239, 0.00, 18026.30, 0.00, -1575.33, 0.00, 0.00, -11694.90, 0.00, 0.00, 0.00, 0.00
240, 0.00, 18064.21, 0.00, -1526.89, 0.00, 0.00, -11512.51, 0.00, -0.01, -0.00, 1.01
241, 0.00, 18076.37, 0.00, -1536.26, 0.00, 0.00, -11426.97, 0.00, 0.00, 0.00, 0.00
242, 0.00, 18032.29, 0.00, -1584.36, 0.00, 0.00, -11587.75, 0.00, 0.00, 0.00, 0.00
243, 0.00, 18016.53, 0.00, -1586.39, 0.00, 0.00, -11689.18, 0.00, 0.00, 0.00, 0.00
244, 0.00, 18052.90, 0.00, -1540.42, 0.00, 0.00, -11533.79, 0.00, 0.00, 0.00, 0.00
245, 0.00, 18077.96, 0.00, -1547.68, 0.00, 0.00, -11406.74, 0.00, -0.01, -0.00, 1.02
246, 0.00, 18045.30, 0.00, -1602.40, 0.00, 0.00, -11545.17, 0.00, 0.00, 0.00, 0.00
247, 0.00, 18011.79, 0.00, -1618.00, 0.00, 0.00, -11702.86, 0.00, 0.00, 0.00, 0.00
248, 0.00, 18037.50, 0.00, -1565.56, 0.00, 0.00, -11572.66, 0.00, 0.00, 0.00, 0.00
249, 0.00, 18079.65, 0.00, -1550.12, 0.00, 0.00, -11388.66, 0.00, 0.00, 0.00, 0.00
250, 0.00, 18055.78, 0.00, -1594.55, 0.00, 0.00, -11486.56, 0.00, -0.00, -0.00, 1.02
251, 0.00, 18010.50, 0.00, -1618.96, 0.00, 0.00, -11690.34, 0.00, 0.00, 0.00, 0.00
252, 0.00, 18034.75, 0.00, -1576.07, 0.00, 0.00, -11616.07, 0.00, 0.00, 0.00, 0.00
253, 0.00, 18078.94, 0.00, -1542.40, 0.00, 0.00, -11401.29, 0.00, 0.00, 0.00, 0.00
254, 0.00, 18076.03, 0.00, -1583.98, 0.00, 0.00, -11462.51, 0.00, 0.00, 0.00, 0.00
255, 0.00, 18036.22, 0.00, -1624.35, 0.00, 0.00, -11669.42, 0.00, -0.01, -0.00, 1.02
0, 0.00, 18007.30, 0.00, -1584.87, 0.00, 0.00, -11652.99, 0.00, 0.00, 0.00, 0.00
1, 0.00, 18032.38, 0.00, -1552.26, 0.00, 0.00, -11433.52, 0.00, 0.00, 0.00, 0.00
2, 0.00, 18026.03, 0.00, -1579.73, 0.00, 0.00, -11423.95, 0.00, 0.00, 0.00, 0.00
3, 0.00, 17980.50, 0.00, -1614.29, 0.00, 0.00, -11623.71, 0.00, 0.00, 0.00, 0.00
4, 0.00, 17960.50, 0.00, -1581.92, 0.00, 0.00, -11667.63, 0.00, -0.01, -0.01, 1.02
5, 0.00, 18004.73, 0.00, -1509.73, 0.00, 0.00, -11472.08, 0.00, 0.00, 0.00, 0.00
6, 0.00, 18020.22, 0.00, -1499.78, 0.00, 0.00, -11407.53, 0.00, 0.00, 0.00, 0.00
7, 0.00, 17985.80, 0.00, -1540.35, 0.00, 0.00, -11592.67, 0.00, 0.00, 0.00, 0.00
8, 0.00, 17972.54, 0.00, -1510.84, 0.00, 0.00, -11682.90, 0.00, 0.00, 0.00, 0.00
9, 0.00, 18012.33, 0.00, -1459.68, 0.00, 0.00, -11511.19, 0.00, -0.01, -0.01, 1.01
10, 0.00, 18036.90, 0.00, -1479.39, 0.00, 0.00, -11400.37, 0.00, 0.00, 0.00, 0.00
11, 0.00, 18002.81, 0.00, -1534.89, 0.00, 0.00, -11574.60, 0.00, 0.00, 0.00, 0.00
12, 0.00, 17977.46, 0.00, -1541.60, 0.00, 0.00, -11697.25, 0.00, 0.00, 0.00, 0.00
13, 0.00, 18013.74, 0.00, -1525.66, 0.00, 0.00, -11537.41, 0.00, 0.00, 0.00, 0.00
14, 0.00, 18044.85, 0.00, -1562.50, 0.00, 0.00, -11389.08, 0.00, -0.00, -0.01, 1.01
15, 0.00, 18014.41, 0.00, -1615.45, 0.00, 0.00, -11513.29, 0.00, 0.00, 0.00, 0.00
16, 0.00, 17982.85, 0.00, -1623.83, 0.00, 0.00, -11667.39, 0.00, 0.00, 0.00, 0.00
17, 0.00, 18014.14, 0.00, -1575.37, 0.00, 0.00, -11566.94, 0.00, 0.00, 0.00, 0.00
18, 0.00, 18054.26, 0.00, -1546.63, 0.00, 0.00, -11390.92, 0.00, 0.00, 0.00, 0.00
19, 0.00, 18033.39, 0.00, -1592.47, 0.00, 0.00, -11465.71, 0.00, 0.00, 0.00, 0.00
20, 0.00, 17997.98, 0.00, -1617.28, 0.00, 0.00, -11657.51, 0.00, -0.00, -0.01, 1.02
21, 0.00, 18005.65, 0.00, -1575.60, 0.00, 0.00, -11603.35, 0.00, 0.00, 0.00, 0.00
22, 0.00, 18041.34, 0.00, -1549.76, 0.00, 0.00, -11395.86, 0.00, 0.00, 0.00, 0.00
23, 0.00, 18034.77, 0.00, -1586.48, 0.00, 0.00, -11424.58, 0.00, 0.00, 0.00, 0.00
24, 0.00, 17989.11, 0.00, -1613.51, 0.00, 0.00, -11640.12, 0.00, 0.00, 0.00, 0.00
25, 0.00, 17997.89, 0.00, -1583.96, 0.00, 0.00, -11636.12, 0.00, -0.01, -0.00, 1.01
26, 0.00, 18035.24, 0.00, -1544.33, 0.00, 0.00, -11430.59, 0.00, 0.00, 0.00, 0.00
27, 0.00, 18035.78, 0.00, -1568.22, 0.00, 0.00, -11416.38, 0.00, 0.00, 0.00, 0.00
28, 0.00, 18000.71, 0.00, -1619.03, 0.00, 0.00, -11609.92, 0.00, 0.00, 0.00, 0.00
29, 0.00, 18000.48, 0.00, -1604.01, 0.00, 0.00, -11655.41, 0.00, 0.00, 0.00, 0.00
30, 0.00, 18043.20, 0.00, -1554.34, 0.00, 0.00, -11468.66, 0.00, -0.01, -0.00, 1.02
31, 0.00, 18046.80, 0.00, -1559.91, 0.00, 0.00, -11395.08, 0.00, 0.00, 0.00, 0.00
32, 0.00, 18003.66, 0.00, -1614.18, 0.00, 0.00, -11577.64, 0.00, 0.00, 0.00, 0.00
33, 0.00, 17986.89, 0.00, -1602.87, 0.00, 0.00, -11675.59, 0.00, 0.00, 0.00, 0.00
34, 0.00, 18017.49, 0.00, -1554.25, 0.00, 0.00, -11502.30, 0.00, 0.00, 0.00, 0.00
35, 0.00, 18036.27, 0.00, -1555.79, 0.00, 0.00, -11378.29, 0.00, -0.00, -0.01, 1.01
36, 0.00, 18002.90, 0.00, -1605.35, 0.00, 0.00, -11540.03, 0.00, 0.00, 0.00, 0.00
37, 0.00, 17974.29, 0.00, -1604.54, 0.00, 0.00, -11683.79, 0.00, 0.00, 0.00, 0.00
38, 0.00, 18013.87, 0.00, -1553.02, 0.00, 0.00, -11525.30, 0.00, 0.00, 0.00, 0.00
39, 0.00, 18043.45, 0.00, -1549.69, 0.00, 0.00, -11361.79, 0.00, 0.00, 0.00, 0.00
40, 0.00, 18014.88, 0.00, -1600.34, 0.00, 0.00, -11469.78, 0.00, 0.00, -0.01, 1.02
41, 0.00, 17979.45, 0.00, -1610.87, 0.00, 0.00, -11655.14, 0.00, 0.00, 0.00, 0.00
42, 0.00, 18007.86, 0.00, -1559.24, 0.00, 0.00, -11539.76, 0.00, 0.00, 0.00, 0.00
43, 0.00, 18046.28, 0.00, -1536.08, 0.00, 0.00, -11359.58, 0.00, 0.00, 0.00, 0.00
44, 0.00, 18027.06, 0.00, -1579.62, 0.00, 0.00, -11433.45, 0.00, 0.00, 0.00, 0.00
45, 0.00, 17983.68, 0.00, -1606.84, 0.00, 0.00, -11627.22, 0.00, -0.00, -0.01, 1.02
46, 0.00, 18000.35, 0.00, -1565.34, 0.00, 0.00, -11587.43, 0.00, 0.00, 0.00, 0.00
47, 0.00, 18045.48, 0.00, -1537.84, 0.00, 0.00, -11372.88, 0.00, 0.00, 0.00, 0.00
48, 0.00, 18032.67, 0.00, -1572.80, 0.00, 0.00, -11397.40, 0.00, 0.00, 0.00, 0.00
49, 0.00, 17982.04, 0.00, -1601.30, 0.00, 0.00, -11609.52, 0.00, 0.00, 0.00, 0.00
50, 0.00, 17987.32, 0.00, -1563.48, 0.00, 0.00, -11621.66, 0.00, 0.00, 0.00, 0.00
51, 0.00, 18036.72, 0.00, -1517.77, 0.00, 0.00, -11415.28, 0.00, 0.01, -0.01, 1.02
52, 0.00, 18037.68, 0.00, -1543.54, 0.00, 0.00, -11384.39, 0.00, 0.00, 0.00, 0.00
53, 0.00, 17997.62, 0.00, -1581.23, 0.00, 0.00, -11576.46, 0.00, 0.00, 0.00, 0.00
54, 0.00, 17991.57, 0.00, -1556.08, 0.00, 0.00, -11633.26, 0.00, 0.00, 0.00, 0.00
55, 0.00, 18030.77, 0.00, -1514.73, 0.00, 0.00, -11447.94, 0.00, 0.00, 0.00, 0.00
56, 0.00, 18048.74, 0.00, -1523.43, 0.00, 0.00, -11349.43, 0.00, -0.00, -0.01, 1.01
57, 0.00, 18010.32, 0.00, -1563.33, 0.00, 0.00, -11517.54, 0.00, 0.00, 0.00, 0.00
58, 0.00, 17988.10, 0.00, -1549.00, 0.00, 0.00, -11633.61, 0.00, 0.00, 0.00, 0.00
59, 0.00, 18022.84, 0.00, -1495.04, 0.00, 0.00, -11471.61, 0.00, 0.00, 0.00, 0.00
60, 0.00, 18053.46, 0.00, -1487.42, 0.00, 0.00, -11330.23, 0.00, 0.00, 0.00, 0.00
61, 0.00, 18019.35, 0.00, -1530.92, 0.00, 0.00, -11476.46, 0.00, -0.01, -0.01, 1.02
62, 0.00, 17982.78, 0.00, -1538.27, 0.00, 0.00, -11630.93, 0.00, 0.00, 0.00, 0.00
63, 0.00, 18013.58, 0.00, -1488.58, 0.00, 0.00, -11508.15, 0.00, 0.00, 0.00, 0.00
64, 0.00, 18048.79, 0.00, -1458.65, 0.00, 0.00, -11353.32, 0.00, 0.00, 0.00, 0.00
65, 0.00, 18021.74, 0.00, -1505.86, 0.00, 0.00, -11442.24, 0.00, 0.00, 0.00, 0.00
66, 0.00, 17986.54, 0.00, -1526.00, 0.00, 0.00, -11612.00, 0.00, -0.00, -0.01, 1.02
67, 0.00, 18010.32, 0.00, -1486.73, 0.00, 0.00, -11531.40, 0.00, 0.00, 0.00, 0.00
68, 0.00, 18052.86, 0.00, -1455.79, 0.00, 0.00, -11346.33, 0.00, 0.00, 0.00, 0.00
69, 0.00, 18038.71, 0.00, -1491.91, 0.00, 0.00, -11405.04, 0.00, 0.00, 0.00, 0.00
70, 0.00, 17993.51, 0.00, -1534.74, 0.00, 0.00, -11593.45, 0.00, 0.00, 0.00, 0.00
71, 0.00, 18003.64, 0.00, -1509.37, 0.00, 0.00, -11563.56, 0.00, -0.00, -0.01, 1.02
72, 0.00, 18047.67, 0.00, -1472.94, 0.00, 0.00, -11353.70, 0.00, 0.00, 0.00, 0.00
73, 0.00, 18043.24, 0.00, -1508.65, 0.00, 0.00, -11365.82, 0.00, 0.00, 0.00, 0.00
74, 0.00, 17990.27, 0.00, -1564.98, 0.00, 0.00, -11586.27, 0.00, 0.00, 0.00, 0.00
75, 0.00, 17992.17, 0.00, -1548.24, 0.00, 0.00, -11608.60, 0.00, 0.00, 0.00, 0.00
76, 0.00, 18032.36, 0.00, -1515.14, 0.00, 0.00, -11397.82, 0.00, 0.00, -0.01, 1.02
77, 0.00, 18036.16, 0.00, -1542.96, 0.00, 0.00, -11350.71, 0.00, 0.00, 0.00, 0.00
78, 0.00, 17995.08, 0.00, -1599.07, 0.00, 0.00, -11551.18, 0.00, 0.00, 0.00, 0.00
79, 0.00, 17984.95, 0.00, -1591.04, 0.00, 0.00, -11612.71, 0.00, 0.00, 0.00, 0.00
80, 0.00, 18028.09, 0.00, -1548.95, 0.00, 0.00, -11428.89, 0.00, 0.00, 0.00, 0.00
81, 0.00, 18044.63, 0.00, -1559.06, 0.00, 0.00, -11342.48, 0.00, -0.00, -0.01, 1.02
82, 0.00, 18007.75, 0.00, -1610.76, 0.00, 0.00, -11515.89, 0.00, 0.00, 0.00, 0.00
83, 0.00, 17979.94, 0.00, -1618.07, 0.00, 0.00, -11622.55, 0.00, 0.00, 0.00, 0.00
84, 0.00, 18013.25, 0.00, -1571.46, 0.00, 0.00, -11466.31, 0.00, 0.00, 0.00, 0.00
85, 0.00, 18039.38, 0.00, -1565.45, 0.00, 0.00, -11322.81, 0.00, 0.00, 0.00, 0.00
86, 0.00, 18012.18, 0.00, -1620.19, 0.00, 0.00, -11458.44, 0.00, 0.00, 0.00, 0.00
87, 0.00, 17985.22, 0.00, -1634.36, 0.00, 0.00, -11613.43, 0.00, 0.00, -0.01, 1.02
88, 0.00, 18013.90, 0.00, -1593.39, 0.00, 0.00, -11507.53, 0.00, 0.00, 0.00, 0.00
89, 0.00, 18050.17, 0.00, -1565.05, 0.00, 0.00, -11336.07, 0.00, 0.00, 0.00, 0.00
90, 0.00, 18019.84, 0.00, -1605.24, 0.00, 0.00, -11430.39, 0.00, 0.00, 0.00, 0.00
91, 0.00, 17975.29, 0.00, -1641.22, 0.00, 0.00, -11616.96, 0.00, 0.00, 0.00, 0.00
92, 0.00, 17991.16, 0.00, -1599.67, 0.00, 0.00, -11535.65, 0.00, -0.00, -0.01, 1.01
93, 0.00, 18030.95, 0.00, -1568.24, 0.00, 0.00, -11338.32, 0.00, 0.00, 0.00, 0.00
94, 0.00, 18014.95, 0.00, -1605.35, 0.00, 0.00, -11379.16, 0.00, 0.00, 0.00, 0.00
95, 0.00, 17974.36, 0.00, -1641.24, 0.00, 0.00, -11580.08, 0.00, 0.00, 0.00, 0.00
96, 0.00, 17983.41, 0.00, -1608.59, 0.00, 0.00, -11565.78, 0.00, 0.00, 0.00, 0.00
97, 0.00, 18030.01, 0.00, -1574.21, 0.00, 0.00, -11363.76, 0.00, -0.00, -0.01, 1.01
98, 0.00, 18029.14, 0.00, -1603.42, 0.00, 0.00, -11342.08, 0.00, 0.00, 0.00, 0.00
99, 0.00, 17987.10, 0.00, -1642.45, 0.00, 0.00, -11545.99, 0.00, 0.00, 0.00, 0.00
100, 0.00, 17980.73, 0.00, -1616.34, 0.00, 0.00, -11591.19, 0.00, 0.00, 0.00, 0.00
101, 0.00, 18024.20, 0.00, -1565.31, 0.00, 0.00, -11394.49, 0.00, 0.00, 0.00, 0.00
102, 0.00, 18033.01, 0.00, -1586.55, 0.00, 0.00, -11326.43, 0.00, -0.00, -0.01, 1.01
103, 0.00, 17982.76, 0.00, -1639.03, 0.00, 0.00, -11526.84, 0.00, 0.00, 0.00, 0.00
104, 0.00, 17967.40, 0.00, -1628.64, 0.00, 0.00, -11610.81, 0.00, 0.00, 0.00, 0.00
105, 0.00, 18016.47, 0.00, -1579.28, 0.00, 0.00, -11409.89, 0.00, 0.00, 0.00, 0.00
106, 0.00, 18041.19, 0.00, -1582.66, 0.00, 0.00, -11297.06, 0.00, 0.00, 0.00, 0.00
107, 0.00, 17996.60, 0.00, -1638.16, 0.00, 0.00, -11466.47, 0.00, -0.01, -0.00, 1.01
108, 0.00, 17962.91, 0.00, -1641.91, 0.00, 0.00, -11602.19, 0.00, 0.00, 0.00, 0.00
109, 0.00, 17999.32, 0.00, -1591.47, 0.00, 0.00, -11457.55, 0.00, 0.00, 0.00, 0.00
110, 0.00, 18036.45, 0.00, -1578.08, 0.00, 0.00, -11305.85, 0.00, 0.00, 0.00, 0.00
111, 0.00, 18011.33, 0.00, -1623.70, 0.00, 0.00, -11435.62, 0.00, 0.00, 0.00, 0.00
112, 0.00, 17974.02, 0.00, -1636.64, 0.00, 0.00, -11605.50, 0.00, 0.00, -0.01, 1.02
113, 0.00, 17997.04, 0.00, -1593.59, 0.00, 0.00, -11498.85, 0.00, 0.00, 0.00, 0.00
114, 0.00, 18035.55, 0.00, -1577.32, 0.00, 0.00, -11315.59, 0.00, 0.00, 0.00, 0.00
115, 0.00, 18016.58, 0.00, -1621.15, 0.00, 0.00, -11391.97, 0.00, 0.00, 0.00, 0.00
116, 0.00, 17970.78, 0.00, -1646.79, 0.00, 0.00, -11590.21, 0.00, 0.00, 0.00, 0.00
117, 0.00, 17987.57, 0.00, -1600.43, 0.00, 0.00, -11528.60, 0.00, 0.00, 0.00, 0.00
118, 0.00, 18029.92, 0.00, -1572.02, 0.00, 0.00, -11330.81, 0.00, -0.00, -0.01, 1.02
119, 0.00, 18022.05, 0.00, -1612.01, 0.00, 0.00, -11356.23, 0.00, 0.00, 0.00, 0.00
120, 0.00, 17982.22, 0.00, -1651.03, 0.00, 0.00, -11559.27, 0.00, 0.00, 0.00, 0.00
121, 0.00, 17989.33, 0.00, -1624.41, 0.00, 0.00, -11550.11, 0.00, 0.00, 0.00, 0.00
122, 0.00, 18031.62, 0.00, -1576.76, 0.00, 0.00, -11345.14, 0.00, 0.00, 0.00, 0.00
123, 0.00, 18036.81, 0.00, -1595.11, 0.00, 0.00, -11316.15, 0.00, -0.00, -0.00, 1.01
124, 0.00, 17992.82, 0.00, -1639.79, 0.00, 0.00, -11518.95, 0.00, 0.00, 0.00, 0.00
125, 0.00, 17984.32, 0.00, -1629.76, 0.00, 0.00, -11570.80, 0.00, 0.00, 0.00, 0.00
126, 0.00, 18028.00, 0.00, -1587.02, 0.00, 0.00, -11373.17, 0.00, 0.00, 0.00, 0.00
127, 0.00, 18041.12, 0.00, -1603.76, 0.00, 0.00, -11299.23, 0.00, 0.00, 0.00, 0.00
128, 0.00, 17996.17, 0.00, -1652.55, 0.00, 0.00, -11481.67, 0.00, 0.00, -0.00, 1.02
129, 0.00, 17979.16, 0.00, -1643.70, 0.00, 0.00, -11583.57, 0.00, 0.00, 0.00, 0.00
130, 0.00, 18020.80, 0.00, -1590.33, 0.00, 0.00, -11412.53, 0.00, 0.00, 0.00, 0.00
131, 0.00, 18047.54, 0.00, -1586.80, 0.00, 0.00, -11285.66, 0.00, 0.00, 0.00, 0.00
132, 0.00, 18008.69, 0.00, -1640.17, 0.00, 0.00, -11443.13, 0.00, 0.00, 0.00, 0.00
133, 0.00, 17977.53, 0.00, -1648.42, 0.00, 0.00, -11583.66, 0.00, -0.00, -0.00, 1.01
134, 0.00, 18007.08, 0.00, -1598.02, 0.00, 0.00, -11445.88, 0.00, 0.00, 0.00, 0.00
135, 0.00, 18040.43, 0.00, -1593.61, 0.00, 0.00, -11284.41, 0.00, 0.00, 0.00, 0.00
136, 0.00, 18013.40, 0.00, -1639.66, 0.00, 0.00, -11396.84, 0.00, 0.00, 0.00, 0.00
137, 0.00, 17981.29, 0.00, -1663.17, 0.00, 0.00, -11580.91, 0.00, 0.00, 0.00, 0.00
138, 0.00, 18004.51, 0.00, -1626.60, 0.00, 0.00, -11484.86, 0.00, -0.00, -0.01, 1.02
139, 0.00, 18042.69, 0.00, -1592.54, 0.00, 0.00, -11282.96, 0.00, 0.00, 0.00, 0.00
140, 0.00, 18024.78, 0.00, -1619.74, 0.00, 0.00, -11347.58, 0.00, 0.00, 0.00, 0.00
141, 0.00, 17979.09, 0.00, -1652.06, 0.00, 0.00, -11546.51, 0.00, 0.00, 0.00, 0.00
142, 0.00, 17987.99, 0.00, -1621.22, 0.00, 0.00, -11506.25, 0.00, 0.00, 0.00, 0.00
143, 0.00, 18027.89, 0.00, -1590.48, 0.00, 0.00, -11306.88, 0.00, -0.01, -0.01, 1.02
144, 0.00, 18024.51, 0.00, -1628.03, 0.00, 0.00, -11323.04, 0.00, 0.00, 0.00, 0.00
145, 0.00, 17982.51, 0.00, -1660.94, 0.00, 0.00, -11520.96, 0.00, 0.00, 0.00, 0.00
146, 0.00, 17983.45, 0.00, -1628.57, 0.00, 0.00, -11529.05, 0.00, 0.00, 0.00, 0.00
147, 0.00, 18027.75, 0.00, -1588.31, 0.00, 0.00, -11324.00, 0.00, 0.00, 0.00, 0.00
148, 0.00, 18024.18, 0.00, -1616.30, 0.00, 0.00, -11290.78, 0.00, -0.00, -0.00, 1.02
149, 0.00, 17973.95, 0.00, -1663.44, 0.00, 0.00, -11496.60, 0.00, 0.00, 0.00, 0.00
150, 0.00, 17965.13, 0.00, -1652.44, 0.00, 0.00, -11555.32, 0.00, 0.00, 0.00, 0.00
151, 0.00, 18006.97, 0.00, -1599.58, 0.00, 0.00, -11368.86, 0.00, 0.00, 0.00, 0.00
152, 0.00, 18026.46, 0.00, -1601.88, 0.00, 0.00, -11279.94, 0.00, 0.00, 0.00, 0.00
153, 0.00, 17997.94, 0.00, -1653.89, 0.00, 0.00, -11454.98, 0.00, 0.00, 0.00, 0.00
154, 0.00, 17963.29, 0.00, -1655.06, 0.00, 0.00, -11563.27, 0.00, -0.01, -0.00, 1.02
155, 0.00, 18000.89, 0.00, -1609.66, 0.00, 0.00, -11402.99, 0.00, 0.00, 0.00, 0.00
156, 0.00, 17998.14, 0.00, -1601.75, 0.00, 0.00, -11273.93, 0.00, 0.00, 0.00, 0.00
157, 0.00, 17940.69, 0.00, -1652.71, 0.00, 0.00, -11418.59, 0.00, 0.00, 0.00, 0.00
158, 0.00, 17909.27, 0.00, -1663.13, 0.00, 0.00, -11564.86, 0.00, 0.00, 0.00, 0.00
159, 0.00, 17900.01, 0.00, -1612.99, 0.00, 0.00, -11438.37, 0.00, -0.00, -0.01, 1.02
160, 0.00, 17916.08, 0.00, -1600.56, 0.00, 0.00, -11271.98, 0.00, 0.00, 0.00, 0.00
161, 0.00, 17832.69, 0.00, -1648.58, 0.00, 0.00, -11371.99, 0.00, 0.00, 0.00, 0.00
162, 0.00, 17725.74, 0.00, -1672.11, 0.00, 0.00, -11543.27, 0.00, 0.00, 0.00, 0.00
163, 0.00, 17705.96, 0.00, -1627.54, 0.00, 0.00, -11474.07, 0.00, 0.00, 0.00, 0.00
164, 0.00, 17730.50, 0.00, -1600.07, 0.00, 0.00, -11277.88, 0.00, -0.01, -0.00, 1.02
165, 0.00, 17634.14, 0.00, -1638.79, 0.00, 0.00, -11331.31, 0.00, 0.00, 0.00, 0.00
166, 0.00, 17547.59, 0.00, -1671.91, 0.00, 0.00, -11540.34, 0.00, 0.00, 0.00, 0.00
167, 0.00, 17535.26, 0.00, -1630.54, 0.00, 0.00, -11514.84, 0.00, 0.00, 0.00, 0.00
168, 0.00, 17527.97, 0.00, -1603.34, 0.00, 0.00, -11306.12, 0.00, 0.00, 0.00, 0.00
169, 0.00, 17557.67, 0.00, -1635.19, 0.00, 0.00, -11298.38, 0.00, -0.00, -0.01, 1.01
170, 0.00, 17486.89, 0.00, -1673.92, 0.00, 0.00, -11508.51, 0.00, 0.00, 0.00, 0.00
171, 0.00, 17404.70, 0.00, -1654.19, 0.00, 0.00, -11549.01, 0.00, 0.00, 0.00, 0.00
172, 0.00, 17425.13, 0.00, -1606.51, 0.00, 0.00, -11355.38, 0.00, 0.00, 0.00, 0.00
173, 0.00, 17419.00, 0.00, -1626.11, 0.00, 0.00, -11286.78, 0.00, 0.00, 0.00, 0.00
174, 0.00, 17390.60, 0.00, -1671.80, 0.00, 0.00, -11469.22, 0.00, -0.00, -0.01, 1.02
175, 0.00, 17364.82, 0.00, -1648.87, 0.00, 0.00, -11553.15, 0.00, 0.00, 0.00, 0.00
176, 0.00, 17359.01, 0.00, -1604.36, 0.00, 0.00, -11387.01, 0.00, 0.00, 0.00, 0.00
177, 0.00, 17347.43, 0.00, -1614.67, 0.00, 0.00, -11273.62, 0.00, 0.00, 0.00, 0.00
178, 0.00, 17285.41, 0.00, -1674.37, 0.00, 0.00, -11424.29, 0.00, 0.00, 0.00, 0.00
179, 0.00, 17259.10, 0.00, -1670.99, 0.00, 0.00, -11531.69, 0.00, 0.00, -0.01, 1.02
180, 0.00, 17260.55, 0.00, -1611.72, 0.00, 0.00, -11386.02, 0.00, 0.00, 0.00, 0.00
181, 0.00, 17251.95, 0.00, -1606.96, 0.00, 0.00, -11260.61, 0.00, 0.00, 0.00, 0.00
182, 0.00, 17205.90, 0.00, -1657.20, 0.00, 0.00, -11410.05, 0.00, 0.00, 0.00, 0.00
183, 0.00, 17150.18, 0.00, -1674.95, 0.00, 0.00, -11577.73, 0.00, 0.00, 0.00, 0.00
184, 0.00, 17183.93, 0.00, -1625.28, 0.00, 0.00, -11467.99, 0.00, 0.00, -0.00, 1.01
